wavelength(nm)         real         imag
200.00   3.86804670   0.00061069
201.00   3.86772649   0.00061989
202.00   3.86740468   0.00062919
203.00   3.86708128   0.00063857
204.00   3.86675628   0.00064805
205.00   3.86642969   0.00065763
206.00   3.86610150   0.00066730
207.00   3.86577172   0.00067706
208.00   3.86544034   0.00068692
209.00   3.86510737   0.00069687
210.00   3.86477281   0.00070692
211.00   3.86443665   0.00071706
212.00   3.86409889   0.00072730
213.00   3.86375955   0.00073764
214.00   3.86341860   0.00074808
215.00   3.86307607   0.00075861
216.00   3.86273194   0.00076924
217.00   3.86238621   0.00077997
218.00   3.86203889   0.00079080
219.00   3.86168998   0.00080173
220.00   3.86133947   0.00081276
221.00   3.86098737   0.00082389
222.00   3.86063368   0.00083512
223.00   3.86027839   0.00084645
224.00   3.85992150   0.00085789
225.00   3.85956303   0.00086943
226.00   3.85920296   0.00088107
227.00   3.85884129   0.00089281
228.00   3.85847803   0.00090466
229.00   3.85811318   0.00091661
230.00   3.85774674   0.00092867
231.00   3.85737870   0.00094083
232.00   3.85700907   0.00095310
233.00   3.85663784   0.00096547
234.00   3.85626502   0.00097795
235.00   3.85589061   0.00099054
236.00   3.85551460   0.00100323
237.00   3.85513700   0.00101603
238.00   3.85475781   0.00102895
239.00   3.85437702   0.00104197
240.00   3.85399464   0.00105510
241.00   3.85361067   0.00106833
242.00   3.85322510   0.00108168
243.00   3.85283794   0.00109514
244.00   3.85244919   0.00110871
245.00   3.85205884   0.00112240
246.00   3.85166691   0.00113619
247.00   3.85127337   0.00115010
248.00   3.85087825   0.00116412
249.00   3.85048153   0.00117825
250.00   3.85008322   0.00119250
251.00   3.84968332   0.00120686
252.00   3.84928182   0.00122134
253.00   3.84887874   0.00123593
254.00   3.84847405   0.00125064
255.00   3.84806778   0.00126546
256.00   3.84765991   0.00128040
257.00   3.84725046   0.00129546
258.00   3.84683941   0.00131063
259.00   3.84642676   0.00132593
260.00   3.84601253   0.00134134
261.00   3.84559670   0.00135687
262.00   3.84517928   0.00137252
263.00   3.84476026   0.00138829
264.00   3.84433966   0.00140418
265.00   3.84391746   0.00142019
266.00   3.84349367   0.00143632
267.00   3.84306829   0.00145257
268.00   3.84264132   0.00146895
269.00   3.84221275   0.00148544
270.00   3.84178260   0.00150206
271.00   3.84135085   0.00151881
272.00   3.84091751   0.00153568
273.00   3.84048257   0.00155267
274.00   3.84004605   0.00156979
275.00   3.83960793   0.00158703
276.00   3.83916822   0.00160440
277.00   3.83872693   0.00162189
278.00   3.83828403   0.00163951
279.00   3.83783955   0.00165726
280.00   3.83739348   0.00167513
281.00   3.83694581   0.00169314
282.00   3.83649656   0.00171127
283.00   3.83604571   0.00172953
284.00   3.83559327   0.00174792
285.00   3.83513924   0.00176644
286.00   3.83468362   0.00178509
287.00   3.83422641   0.00180387
288.00   3.83376760   0.00182278
289.00   3.83330721   0.00184183
290.00   3.83284522   0.00186100
291.00   3.83238165   0.00188031
292.00   3.83191648   0.00189975
293.00   3.83144972   0.00191933
294.00   3.83098137   0.00193903
295.00   3.83051143   0.00195888
296.00   3.83003990   0.00197886
297.00   3.82956678   0.00199897
298.00   3.82909207   0.00201922
299.00   3.82861577   0.00203960
300.00   3.82813788   0.00206012
301.00   3.82765839   0.00208078
302.00   3.82717732   0.00210158
303.00   3.82669466   0.00212251
304.00   3.82621040   0.00214358
305.00   3.82572456   0.00216480
306.00   3.82523713   0.00218615
307.00   3.82474810   0.00220764
308.00   3.82425749   0.00222927
309.00   3.82376528   0.00225104
310.00   3.82327149   0.00227295
311.00   3.82277611   0.00229501
312.00   3.82227913   0.00231720
313.00   3.82178057   0.00233954
314.00   3.82128042   0.00236202
315.00   3.82077868   0.00238465
316.00   3.82027534   0.00240742
317.00   3.81977042   0.00243033
318.00   3.81926391   0.00245339
319.00   3.81875581   0.00247659
320.00   3.81824612   0.00249994
321.00   3.81773484   0.00252344
322.00   3.81722197   0.00254708
323.00   3.81670752   0.00257087
324.00   3.81619147   0.00259481
325.00   3.81567383   0.00261889
326.00   3.81515461   0.00264313
327.00   3.81463380   0.00266751
328.00   3.81411139   0.00269204
329.00   3.81358740   0.00271672
330.00   3.81306182   0.00274155
331.00   3.81253465   0.00276653
332.00   3.81200589   0.00279167
333.00   3.81147555   0.00281695
334.00   3.81094361   0.00284239
335.00   3.81041009   0.00286798
336.00   3.80987498   0.00289372
337.00   3.80933828   0.00291962
338.00   3.80879999   0.00294567
339.00   3.80826011   0.00297187
340.00   3.80771865   0.00299823
341.00   3.80717559   0.00302474
342.00   3.80663095   0.00305141
343.00   3.80608472   0.00307824
344.00   3.80553691   0.00310522
345.00   3.80498750   0.00313236
346.00   3.80443651   0.00315966
347.00   3.80388393   0.00318711
348.00   3.80332976   0.00321473
349.00   3.80277400   0.00324250
350.00   3.80221666   0.00327043
351.00   3.80165773   0.00329852
352.00   3.80109721   0.00332677
353.00   3.80053510   0.00335519
354.00   3.79997141   0.00338376
355.00   3.79940613   0.00341249
356.00   3.79883926   0.00344139
357.00   3.79827080   0.00347045
358.00   3.79770076   0.00349967
359.00   3.79712913   0.00352906
360.00   3.79655592   0.00355861
361.00   3.79598111   0.00358832
362.00   3.79540472   0.00361820
363.00   3.79482674   0.00364824
364.00   3.79424718   0.00367845
365.00   3.79366603   0.00370883
366.00   3.79308329   0.00373937
367.00   3.79249897   0.00377008
368.00   3.79191306   0.00380096
369.00   3.79132556   0.00383200
370.00   3.79073648   0.00386321
371.00   3.79014581   0.00389460
372.00   3.78955355   0.00392615
373.00   3.78895971   0.00395787
374.00   3.78836428   0.00398976
375.00   3.78776727   0.00402182
376.00   3.78716867   0.00405405
377.00   3.78656849   0.00408646
378.00   3.78596671   0.00411903
379.00   3.78536336   0.00415178
380.00   3.78475841   0.00418470
381.00   3.78415188   0.00421780
382.00   3.78354377   0.00425107
383.00   3.78293407   0.00428451
384.00   3.78232278   0.00431813
385.00   3.78170991   0.00435192
386.00   3.78109546   0.00438589
387.00   3.78047942   0.00442003
388.00   3.77986179   0.00445435
389.00   3.77924258   0.00448885
390.00   3.77862178   0.00452353
391.00   3.77799940   0.00455838
392.00   3.77737543   0.00459341
393.00   3.77674988   0.00462862
394.00   3.77612275   0.00466401
395.00   3.77549403   0.00469958
396.00   3.77486372   0.00473533
397.00   3.77423183   0.00477126
398.00   3.77359836   0.00480737
399.00   3.77296330   0.00484366
400.00   3.77232665   0.00488014
401.00   3.77168843   0.00491680
402.00   3.77104861   0.00495363
403.00   3.77040722   0.00499066
404.00   3.76976424   0.00502786
405.00   3.76911967   0.00506526
406.00   3.76847353   0.00510283
407.00   3.76782580   0.00514059
408.00   3.76717648   0.00517854
409.00   3.76652558   0.00521667
410.00   3.76587310   0.00525499
411.00   3.76521903   0.00529349
412.00   3.76456338   0.00533219
413.00   3.76390615   0.00537107
414.00   3.76324733   0.00541013
415.00   3.76258693   0.00544939
416.00   3.76192495   0.00548884
417.00   3.76126138   0.00552848
418.00   3.76059623   0.00556830
419.00   3.75992950   0.00560832
420.00   3.75926118   0.00564853
421.00   3.75859128   0.00568893
422.00   3.75791980   0.00572952
423.00   3.75724674   0.00577030
424.00   3.75657209   0.00581128
425.00   3.75589586   0.00585244
426.00   3.75521805   0.00589381
427.00   3.75453866   0.00593536
428.00   3.75385768   0.00597712
429.00   3.75317512   0.00601906
430.00   3.75249098   0.00606120
431.00   3.75180526   0.00610354
432.00   3.75111795   0.00614608
433.00   3.75042907   0.00618881
434.00   3.74973860   0.00623174
435.00   3.74904655   0.00627486
436.00   3.74835291   0.00631819
437.00   3.74765770   0.00636171
438.00   3.74696090   0.00640543
439.00   3.74626253   0.00644935
440.00   3.74556257   0.00649348
441.00   3.74486103   0.00653780
442.00   3.74415791   0.00658232
443.00   3.74345320   0.00662704
444.00   3.74274692   0.00667197
445.00   3.74203905   0.00671710
446.00   3.74132961   0.00676243
447.00   3.74061858   0.00680796
448.00   3.73990597   0.00685370
449.00   3.73919179   0.00689964
450.00   3.73847602   0.00694579
451.00   3.73775867   0.00699214
452.00   3.73703974   0.00703869
453.00   3.73631923   0.00708546
454.00   3.73559713   0.00713242
455.00   3.73487346   0.00717960
456.00   3.73414821   0.00722698
457.00   3.73342138   0.00727457
458.00   3.73269297   0.00732237
459.00   3.73196298   0.00737038
460.00   3.73123141   0.00741859
461.00   3.73049825   0.00746702
462.00   3.72976352   0.00751565
463.00   3.72902721   0.00756449
464.00   3.72828932   0.00761355
465.00   3.72754985   0.00766282
466.00   3.72680880   0.00771230
467.00   3.72606618   0.00776199
468.00   3.72532197   0.00781189
469.00   3.72457618   0.00786201
470.00   3.72382881   0.00791234
471.00   3.72307987   0.00796288
472.00   3.72232935   0.00801364
473.00   3.72157724   0.00806461
474.00   3.72082356   0.00811580
475.00   3.72006830   0.00816720
476.00   3.71931146   0.00821882
477.00   3.71855305   0.00827066
478.00   3.71779305   0.00832271
479.00   3.71703148   0.00837498
480.00   3.71626832   0.00842747
481.00   3.71550359   0.00848018
482.00   3.71473728   0.00853310
483.00   3.71396940   0.00858625
484.00   3.71319993   0.00863961
485.00   3.71242889   0.00869320
486.00   3.71165627   0.00874700
487.00   3.71088207   0.00880103
488.00   3.71010630   0.00885528
489.00   3.70932894   0.00890975
490.00   3.70855001   0.00896444
491.00   3.70776951   0.00901936
492.00   3.70698742   0.00907450
493.00   3.70620376   0.00912986
494.00   3.70541852   0.00918545
495.00   3.70463170   0.00924126
496.00   3.70384331   0.00929730
497.00   3.70305334   0.00935356
498.00   3.70226180   0.00941005
499.00   3.70146867   0.00946676
500.00   3.70067397   0.00952371
501.00   3.69987770   0.00958087
502.00   3.69907984   0.00963827
503.00   3.69828041   0.00969590
504.00   3.69747941   0.00975375
505.00   3.69667683   0.00981183
506.00   3.69587267   0.00987015
507.00   3.69506694   0.00992869
508.00   3.69425963   0.00998746
509.00   3.69345074   0.01004647
510.00   3.69264028   0.01010570
511.00   3.69182824   0.01016517
512.00   3.69101463   0.01022487
513.00   3.69019945   0.01028480
514.00   3.68938268   0.01034497
515.00   3.68856435   0.01040537
516.00   3.68774443   0.01046600
517.00   3.68692294   0.01052687
518.00   3.68609988   0.01058797
519.00   3.68527524   0.01064931
520.00   3.68444903   0.01071088
521.00   3.68362124   0.01077269
522.00   3.68279188   0.01083474
523.00   3.68196094   0.01089702
524.00   3.68112843   0.01095955
525.00   3.68029435   0.01102231
526.00   3.67945869   0.01108530
527.00   3.67862145   0.01114854
528.00   3.67778265   0.01121202
529.00   3.67694226   0.01127574
530.00   3.67610031   0.01133969
531.00   3.67525678   0.01140389
532.00   3.67441167   0.01146833
533.00   3.67356500   0.01153301
534.00   3.67271675   0.01159793
535.00   3.67186692   0.01166310
536.00   3.67101553   0.01172851
537.00   3.67016255   0.01179416
538.00   3.66930801   0.01186006
539.00   3.66845189   0.01192620
540.00   3.66759420   0.01199258
541.00   3.66673494   0.01205921
542.00   3.66587411   0.01212609
543.00   3.66501170   0.01219321
544.00   3.66414772   0.01226058
545.00   3.66328216   0.01232819
546.00   3.66241504   0.01239606
547.00   3.66154634   0.01246417
548.00   3.66067607   0.01253253
549.00   3.65980423   0.01260113
550.00   3.65893081   0.01266999
551.00   3.65805583   0.01273910
552.00   3.65717927   0.01280846
553.00   3.65630114   0.01287806
554.00   3.65542144   0.01294792
555.00   3.65454016   0.01301803
556.00   3.65365732   0.01308839
557.00   3.65277290   0.01315901
558.00   3.65188692   0.01322988
559.00   3.65099936   0.01330100
560.00   3.65011023   0.01337237
561.00   3.64921953   0.01344400
562.00   3.64832726   0.01351588
563.00   3.64743341   0.01358802
564.00   3.64653800   0.01366042
565.00   3.64564102   0.01373306
566.00   3.64474246   0.01380597
567.00   3.64384234   0.01387913
568.00   3.64294064   0.01395255
569.00   3.64203738   0.01402623
570.00   3.64113254   0.01410017
571.00   3.64022614   0.01417436
572.00   3.63931816   0.01424881
573.00   3.63840862   0.01432353
574.00   3.63749750   0.01439850
575.00   3.63658482   0.01447373
576.00   3.63567057   0.01454923
577.00   3.63475474   0.01462498
578.00   3.63383735   0.01470100
579.00   3.63291839   0.01477728
580.00   3.63199786   0.01485382
581.00   3.63107576   0.01493063
582.00   3.63015209   0.01500769
583.00   3.62922685   0.01508503
584.00   3.62830005   0.01516262
585.00   3.62737167   0.01524048
586.00   3.62644173   0.01531861
587.00   3.62551022   0.01539700
588.00   3.62457714   0.01547566
589.00   3.62364249   0.01555459
590.00   3.62270627   0.01563378
591.00   3.62176849   0.01571324
592.00   3.62082914   0.01579297
593.00   3.61988822   0.01587296
594.00   3.61894573   0.01595323
595.00   3.61800167   0.01603376
596.00   3.61705605   0.01611457
597.00   3.61610886   0.01619564
598.00   3.61516010   0.01627698
599.00   3.61420978   0.01635860
600.00   3.61325789   0.01644049
601.00   3.61230443   0.01652265
602.00   3.61134940   0.01660508
603.00   3.61039281   0.01668778
604.00   3.60943465   0.01677076
605.00   3.60847493   0.01685401
606.00   3.60751363   0.01693753
607.00   3.60655078   0.01702133
608.00   3.60558635   0.01710541
609.00   3.60462036   0.01718976
610.00   3.60365280   0.01727438
611.00   3.60268368   0.01735929
612.00   3.60171299   0.01744447
613.00   3.60074074   0.01752992
614.00   3.59976692   0.01761566
615.00   3.59879153   0.01770167
616.00   3.59781458   0.01778796
617.00   3.59683606   0.01787453
618.00   3.59585598   0.01796138
619.00   3.59487434   0.01804851
620.00   3.59389112   0.01813592
621.00   3.59290635   0.01822361
622.00   3.59192001   0.01831158
623.00   3.59093210   0.01839983
624.00   3.58994263   0.01848837
625.00   3.58895160   0.01857719
626.00   3.58795900   0.01866629
627.00   3.58696483   0.01875567
628.00   3.58596911   0.01884534
629.00   3.58497181   0.01893529
630.00   3.58397296   0.01902553
631.00   3.58297254   0.01911605
632.00   3.58197056   0.01920686
633.00   3.58096701   0.01929795
634.00   3.57996190   0.01938933
635.00   3.57895523   0.01948100
636.00   3.57794699   0.01957296
637.00   3.57693719   0.01966520
638.00   3.57592583   0.01975773
639.00   3.57491290   0.01985055
640.00   3.57389841   0.01994366
641.00   3.57288236   0.02003706
642.00   3.57186475   0.02013075
643.00   3.57084557   0.02022472
644.00   3.56982483   0.02031899
645.00   3.56880253   0.02041356
646.00   3.56777867   0.02050841
647.00   3.56675324   0.02060355
648.00   3.56572625   0.02069899
649.00   3.56469770   0.02079472
650.00   3.56366759   0.02089075
651.00   3.56263592   0.02098707
652.00   3.56160269   0.02108368
653.00   3.56056789   0.02118059
654.00   3.55953153   0.02127779
655.00   3.55849362   0.02137529
656.00   3.55745414   0.02147309
657.00   3.55641310   0.02157118
658.00   3.55537050   0.02166957
659.00   3.55432634   0.02176826
660.00   3.55328061   0.02186724
661.00   3.55223333   0.02196652
662.00   3.55118449   0.02206611
663.00   3.55013409   0.02216599
664.00   3.54908212   0.02226617
665.00   3.54802860   0.02236665
666.00   3.54697352   0.02246743
667.00   3.54591687   0.02256852
668.00   3.54485867   0.02266990
669.00   3.54379891   0.02277159
670.00   3.54273759   0.02287358
671.00   3.54167471   0.02297587
672.00   3.54061027   0.02307846
673.00   3.53954427   0.02318136
674.00   3.53847671   0.02328456
675.00   3.53740759   0.02338807
676.00   3.53633692   0.02349188
677.00   3.53526468   0.02359600
678.00   3.53419089   0.02370043
679.00   3.53311554   0.02380516
680.00   3.53203863   0.02391019
681.00   3.53096016   0.02401554
682.00   3.52988013   0.02412119
683.00   3.52879855   0.02422715
684.00   3.52771541   0.02433342
685.00   3.52663071   0.02443999
686.00   3.52554445   0.02454688
687.00   3.52445664   0.02465408
688.00   3.52336727   0.02476158
689.00   3.52227634   0.02486940
690.00   3.52118385   0.02497753
691.00   3.52008981   0.02508597
692.00   3.51899421   0.02519472
693.00   3.51789705   0.02530379
694.00   3.51679834   0.02541317
695.00   3.51569807   0.02552286
696.00   3.51459624   0.02563286
697.00   3.51349286   0.02574318
698.00   3.51238792   0.02585382
699.00   3.51128142   0.02596477
700.00   3.51017337   0.02607603
701.00   3.50906376   0.02618761
702.00   3.50795260   0.02629951
703.00   3.50683988   0.02641172
704.00   3.50572561   0.02652425
705.00   3.50460978   0.02663710
706.00   3.50349240   0.02675027
707.00   3.50237346   0.02686375
708.00   3.50125296   0.02697756
709.00   3.50013091   0.02709168
710.00   3.49900731   0.02720613
711.00   3.49788215   0.02732089
712.00   3.49675544   0.02743598
713.00   3.49562717   0.02755138
714.00   3.49449735   0.02766711
715.00   3.49336597   0.02778316
716.00   3.49223305   0.02789954
717.00   3.49109856   0.02801623
718.00   3.48996252   0.02813325
719.00   3.48882493   0.02825059
720.00   3.48768579   0.02836826
721.00   3.48654509   0.02848625
722.00   3.48540284   0.02860457
723.00   3.48425904   0.02872322
724.00   3.48311368   0.02884218
725.00   3.48196677   0.02896148
726.00   3.48081831   0.02908110
727.00   3.47966829   0.02920105
728.00   3.47851672   0.02932133
729.00   3.47736360   0.02944194
730.00   3.47620893   0.02956287
731.00   3.47505270   0.02968413
732.00   3.47389493   0.02980573
733.00   3.47273560   0.02992765
734.00   3.47157472   0.03004990
735.00   3.47041229   0.03017249
736.00   3.46924830   0.03029540
737.00   3.46808277   0.03041865
738.00   3.46691568   0.03054223
739.00   3.46574704   0.03066614
740.00   3.46457686   0.03079039
741.00   3.46340512   0.03091497
742.00   3.46223183   0.03103988
743.00   3.46105698   0.03116513
744.00   3.45988059   0.03129071
745.00   3.45870265   0.03141662
746.00   3.45752316   0.03154288
747.00   3.45634212   0.03166947
748.00   3.45515953   0.03179639
749.00   3.45397538   0.03192365
750.00   3.45278969   0.03205125
751.00   3.45160245   0.03217919
752.00   3.45041366   0.03230746
753.00   3.44922332   0.03243608
754.00   3.44803143   0.03256503
755.00   3.44683799   0.03269433
756.00   3.44564300   0.03282396
757.00   3.44444647   0.03295393
758.00   3.44324838   0.03308425
759.00   3.44204875   0.03321490
760.00   3.44084757   0.03334590
761.00   3.43964484   0.03347724
762.00   3.43844056   0.03360892
763.00   3.43723473   0.03374094
764.00   3.43602736   0.03387331
765.00   3.43481843   0.03400602
766.00   3.43360796   0.03413908
767.00   3.43239595   0.03427248
768.00   3.43118238   0.03440623
769.00   3.42996727   0.03454032
770.00   3.42875061   0.03467476
771.00   3.42753240   0.03480954
772.00   3.42631265   0.03494468
773.00   3.42509135   0.03508016
774.00   3.42386850   0.03521598
775.00   3.42264411   0.03535216
776.00   3.42141817   0.03548868
777.00   3.42019068   0.03562555
778.00   3.41896165   0.03576278
779.00   3.41773107   0.03590035
780.00   3.41649895   0.03603827
781.00   3.41526528   0.03617655
782.00   3.41403006   0.03631517
783.00   3.41279330   0.03645415
784.00   3.41155500   0.03659348
785.00   3.41031515   0.03673316
786.00   3.40907375   0.03687319
787.00   3.40783081   0.03701358
788.00   3.40658632   0.03715432
789.00   3.40534029   0.03729542
790.00   3.40409272   0.03743687
791.00   3.40284360   0.03757867
792.00   3.40159293   0.03772084
793.00   3.40034073   0.03786335
794.00   3.39908698   0.03800623
795.00   3.39783168   0.03814946
796.00   3.39657484   0.03829305
797.00   3.39531646   0.03843699
798.00   3.39405653   0.03858130
799.00   3.39279506   0.03872596
800.00   3.39153205   0.03887098
801.00   3.39026749   0.03901636
802.00   3.38900140   0.03916210
803.00   3.38773376   0.03930821
804.00   3.38646457   0.03945467
805.00   3.38519384   0.03960149
806.00   3.38392158   0.03974868
807.00   3.38264777   0.03989622
808.00   3.38137241   0.04004413
809.00   3.38009552   0.04019241
810.00   3.37881708   0.04034104
811.00   3.37753710   0.04049004
812.00   3.37625558   0.04063941
813.00   3.37497252   0.04078914
814.00   3.37368792   0.04093923
815.00   3.37240178   0.04108969
816.00   3.37111409   0.04124052
817.00   3.36982487   0.04139171
818.00   3.36853410   0.04154327
819.00   3.36724179   0.04169519
820.00   3.36594795   0.04184749
821.00   3.36465256   0.04200015
822.00   3.36335563   0.04215318
823.00   3.36205717   0.04230658
824.00   3.36075716   0.04246035
825.00   3.35945561   0.04261449
826.00   3.35815253   0.04276899
827.00   3.35684790   0.04292387
828.00   3.35554174   0.04307912
829.00   3.35423403   0.04323475
830.00   3.35292479   0.04339074
831.00   3.35161401   0.04354711
832.00   3.35030169   0.04370385
833.00   3.34898783   0.04386096
834.00   3.34767243   0.04401845
835.00   3.34635549   0.04417631
836.00   3.34503702   0.04433454
837.00   3.34371701   0.04449315
838.00   3.34239546   0.04465214
839.00   3.34107237   0.04481150
840.00   3.33974774   0.04497124
841.00   3.33842158   0.04513135
842.00   3.33709388   0.04529184
843.00   3.33576464   0.04545271
844.00   3.33443387   0.04561396
845.00   3.33310156   0.04577559
846.00   3.33176771   0.04593759
847.00   3.33043232   0.04609997
848.00   3.32909540   0.04626274
849.00   3.32775695   0.04642588
850.00   3.32641695   0.04658941
851.00   3.32507542   0.04675331
852.00   3.32373236   0.04691760
853.00   3.32238776   0.04708227
854.00   3.32104162   0.04724732
855.00   3.31969395   0.04741275
856.00   3.31834474   0.04757857
857.00   3.31699400   0.04774477
858.00   3.31564172   0.04791135
859.00   3.31428791   0.04807832
860.00   3.31293256   0.04824567
861.00   3.31157568   0.04841341
862.00   3.31021726   0.04858154
863.00   3.30885731   0.04875005
864.00   3.30749583   0.04891895
865.00   3.30613281   0.04908823
866.00   3.30476826   0.04925790
867.00   3.30340217   0.04942796
868.00   3.30203455   0.04959841
869.00   3.30066540   0.04976925
870.00   3.29929471   0.04994047
871.00   3.29792250   0.05011209
872.00   3.29654874   0.05028409
873.00   3.29517346   0.05045649
874.00   3.29379664   0.05062927
875.00   3.29241829   0.05080245
876.00   3.29103841   0.05097602
877.00   3.28965699   0.05114998
878.00   3.28827405   0.05132434
879.00   3.28688957   0.05149909
880.00   3.28550356   0.05167423
881.00   3.28411602   0.05184976
882.00   3.28272694   0.05202569
883.00   3.28133634   0.05220201
884.00   3.27994420   0.05237873
885.00   3.27855053   0.05255585
886.00   3.27715534   0.05273336
887.00   3.27575861   0.05291126
888.00   3.27436035   0.05308956
889.00   3.27296056   0.05326827
890.00   3.27155924   0.05344736
891.00   3.27015639   0.05362686
892.00   3.26875201   0.05380675
893.00   3.26734610   0.05398705
894.00   3.26593866   0.05416774
895.00   3.26452969   0.05434883
896.00   3.26311919   0.05453033
897.00   3.26170716   0.05471222
898.00   3.26029361   0.05489452
899.00   3.25887852   0.05507721
900.00   3.25746191   0.05526031
901.00   3.25604376   0.05544381
902.00   3.25462409   0.05562771
903.00   3.25320289   0.05581202
904.00   3.25178016   0.05599673
905.00   3.25035591   0.05618185
906.00   3.24893013   0.05636736
907.00   3.24750281   0.05655329
908.00   3.24607397   0.05673962
909.00   3.24464361   0.05692635
910.00   3.24321171   0.05711349
911.00   3.24177829   0.05730104
912.00   3.24034335   0.05748900
913.00   3.23890687   0.05767736
914.00   3.23746887   0.05786613
915.00   3.23602934   0.05805531
916.00   3.23458829   0.05824489
917.00   3.23314571   0.05843489
918.00   3.23170160   0.05862529
919.00   3.23025597   0.05881611
920.00   3.22880881   0.05900734
921.00   3.22736013   0.05919897
922.00   3.22590992   0.05939102
923.00   3.22445819   0.05958348
924.00   3.22300493   0.05977635
925.00   3.22155015   0.05996964
926.00   3.22009384   0.06016333
927.00   3.21863600   0.06035745
928.00   3.21717665   0.06055197
929.00   3.21571576   0.06074691
930.00   3.21425336   0.06094226
931.00   3.21278943   0.06113803
932.00   3.21132397   0.06133421
933.00   3.20985700   0.06153081
934.00   3.20838850   0.06172783
935.00   3.20691847   0.06192526
936.00   3.20544692   0.06212311
937.00   3.20397385   0.06232138
938.00   3.20249926   0.06252007
939.00   3.20102314   0.06271917
940.00   3.19954550   0.06291870
941.00   3.19806634   0.06311864
942.00   3.19658566   0.06331900
943.00   3.19510345   0.06351978
944.00   3.19361973   0.06372099
945.00   3.19213448   0.06392261
946.00   3.19064771   0.06412466
947.00   3.18915941   0.06432712
948.00   3.18766960   0.06453001
949.00   3.18617827   0.06473332
950.00   3.18468541   0.06493706
951.00   3.18319103   0.06514122
952.00   3.18169514   0.06534580
953.00   3.18019772   0.06555081
954.00   3.17869878   0.06575624
955.00   3.17719832   0.06596210
956.00   3.17569634   0.06616838
957.00   3.17419285   0.06637509
958.00   3.17268783   0.06658222
959.00   3.17118129   0.06678979
960.00   3.16967323   0.06699778
961.00   3.16816366   0.06720619
962.00   3.16665256   0.06741504
963.00   3.16513995   0.06762431
964.00   3.16362581   0.06783401
965.00   3.16211016   0.06804415
966.00   3.16059299   0.06825471
967.00   3.15907431   0.06846570
968.00   3.15755410   0.06867712
969.00   3.15603238   0.06888898
970.00   3.15450913   0.06910126
971.00   3.15298437   0.06931398
972.00   3.15145810   0.06952713
973.00   3.14993030   0.06974071
974.00   3.14840099   0.06995473
975.00   3.14687016   0.07016918
976.00   3.14533782   0.07038406
977.00   3.14380396   0.07059938
978.00   3.14226858   0.07081513
979.00   3.14073169   0.07103132
980.00   3.13919328   0.07124795
981.00   3.13765335   0.07146501
982.00   3.13611191   0.07168250
983.00   3.13456895   0.07190044
984.00   3.13302448   0.07211881
985.00   3.13147849   0.07233762
986.00   3.12993098   0.07255686
987.00   3.12838197   0.07277655
988.00   3.12683143   0.07299667
989.00   3.12527938   0.07321724
990.00   3.12372582   0.07343824
991.00   3.12217074   0.07365969
992.00   3.12061415   0.07388157
993.00   3.11905605   0.07410390
994.00   3.11749643   0.07432666
995.00   3.11593530   0.07454987
996.00   3.11437265   0.07477353
997.00   3.11280849   0.07499762
998.00   3.11124282   0.07522216
999.00   3.10967563   0.07544714
1000.00   3.10810694   0.07567257
1001.00   3.10653672   0.07589844
1002.00   3.10496500   0.07612475
1003.00   3.10339177   0.07635151
1004.00   3.10181702   0.07657872
1005.00   3.10024076   0.07680637
1006.00   3.09866299   0.07703447
1007.00   3.09708370   0.07726302
1008.00   3.09550291   0.07749201
1009.00   3.09392060   0.07772145
1010.00   3.09233679   0.07795134
1011.00   3.09075146   0.07818168
1012.00   3.08916462   0.07841247
1013.00   3.08757627   0.07864371
1014.00   3.08598641   0.07887539
1015.00   3.08439504   0.07910753
1016.00   3.08280216   0.07934012
1017.00   3.08120777   0.07957316
1018.00   3.07961187   0.07980665
1019.00   3.07801446   0.08004059
1020.00   3.07641554   0.08027499
1021.00   3.07481511   0.08050984
1022.00   3.07321317   0.08074514
1023.00   3.07160973   0.08098089
1024.00   3.07000477   0.08121710
1025.00   3.06839831   0.08145377
1026.00   3.06679033   0.08169088
1027.00   3.06518085   0.08192846
1028.00   3.06356987   0.08216649
1029.00   3.06195737   0.08240497
1030.00   3.06034336   0.08264392
1031.00   3.05872785   0.08288331
1032.00   3.05711083   0.08312317
1033.00   3.05549231   0.08336349
1034.00   3.05387227   0.08360426
1035.00   3.05225073   0.08384549
1036.00   3.05062769   0.08408718
1037.00   3.04900313   0.08432933
1038.00   3.04737707   0.08457194
1039.00   3.04574951   0.08481501
1040.00   3.04412043   0.08505854
1041.00   3.04248986   0.08530253
1042.00   3.04085777   0.08554699
1043.00   3.03922418   0.08579190
1044.00   3.03758909   0.08603728
1045.00   3.03595249   0.08628312
1046.00   3.03431439   0.08652943
1047.00   3.03267478   0.08677619
1048.00   3.03103366   0.08702342
1049.00   3.02939104   0.08727112
1050.00   3.02774692   0.08751928
1051.00   3.02610130   0.08776791
1052.00   3.02445417   0.08801700
1053.00   3.02280553   0.08826656
1054.00   3.02115539   0.08851658
1055.00   3.01950375   0.08876707
1056.00   3.01785061   0.08901803
1057.00   3.01619596   0.08926946
1058.00   3.01453981   0.08952135
1059.00   3.01288216   0.08977372
1060.00   3.01122300   0.09002655
1061.00   3.00956234   0.09027985
1062.00   3.00790018   0.09053362
1063.00   3.00623652   0.09078786
1064.00   3.00457136   0.09104258
1065.00   3.00290469   0.09129776
1066.00   3.00123652   0.09155342
1067.00   2.99956686   0.09180954
1068.00   2.99789569   0.09206614
1069.00   2.99622302   0.09232321
1070.00   2.99454885   0.09258076
1071.00   2.99287317   0.09283878
1072.00   2.99119600   0.09309727
1073.00   2.98951733   0.09335624
1074.00   2.98783716   0.09361568
1075.00   2.98615549   0.09387560
1076.00   2.98447231   0.09413599
1077.00   2.98278764   0.09439686
1078.00   2.98110147   0.09465820
1079.00   2.97941380   0.09492002
1080.00   2.97772463   0.09518232
1081.00   2.97603397   0.09544510
1082.00   2.97434180   0.09570835
1083.00   2.97264814   0.09597209
1084.00   2.97095297   0.09623630
1085.00   2.96925631   0.09650099
1086.00   2.96755816   0.09676616
1087.00   2.96585850   0.09703181
1088.00   2.96415735   0.09729794
1089.00   2.96245469   0.09756456
1090.00   2.96075055   0.09783165
1091.00   2.95904490   0.09809923
1092.00   2.95733776   0.09836728
1093.00   2.95562912   0.09863583
1094.00   2.95391898   0.09890485
1095.00   2.95220735   0.09917436
1096.00   2.95049423   0.09944435
1097.00   2.94877960   0.09971482
1098.00   2.94706348   0.09998578
1099.00   2.94534587   0.10025723
1100.00   2.94362676   0.10052916
1101.00   2.94190615   0.10080157
1102.00   2.94018405   0.10107447
1103.00   2.93846046   0.10134786
1104.00   2.93673537   0.10162174
1105.00   2.93500879   0.10189610
1106.00   2.93328071   0.10217095
1107.00   2.93155114   0.10244629
1108.00   2.92982007   0.10272212
1109.00   2.92808751   0.10299844
1110.00   2.92635346   0.10327525
1111.00   2.92461791   0.10355254
1112.00   2.92288087   0.10383033
1113.00   2.92114234   0.10410861
1114.00   2.91940231   0.10438738
1115.00   2.91766079   0.10466664
1116.00   2.91591778   0.10494639
1117.00   2.91417328   0.10522664
1118.00   2.91242729   0.10550738
1119.00   2.91067980   0.10578861
1120.00   2.90893082   0.10607033
1121.00   2.90718035   0.10635255
1122.00   2.90542839   0.10663526
1123.00   2.90367494   0.10691847
1124.00   2.90192000   0.10720218
1125.00   2.90016356   0.10748637
1126.00   2.89840564   0.10777107
1127.00   2.89664622   0.10805626
1128.00   2.89488532   0.10834195
1129.00   2.89312292   0.10862814
1130.00   2.89135904   0.10891482
1131.00   2.88959366   0.10920200
1132.00   2.88782680   0.10948968
1133.00   2.88605845   0.10977786
1134.00   2.88428861   0.11006654
1135.00   2.88251727   0.11035572
1136.00   2.88074446   0.11064540
1137.00   2.87897015   0.11093557
1138.00   2.87719435   0.11122625
1139.00   2.87541707   0.11151744
1140.00   2.87363829   0.11180912
1141.00   2.87185803   0.11210130
1142.00   2.87007629   0.11239399
1143.00   2.86829305   0.11268718
1144.00   2.86650833   0.11298088
1145.00   2.86472212   0.11327507
1146.00   2.86293442   0.11356978
1147.00   2.86114524   0.11386498
1148.00   2.85935457   0.11416069
1149.00   2.85756241   0.11445691
1150.00   2.85576877   0.11475363
1151.00   2.85397365   0.11505086
1152.00   2.85217703   0.11534860
1153.00   2.85037893   0.11564684
1154.00   2.84857935   0.11594559
1155.00   2.84677828   0.11624485
1156.00   2.84497573   0.11654462
1157.00   2.84317169   0.11684489
1158.00   2.84136617   0.11714568
1159.00   2.83955916   0.11744697
1160.00   2.83775067   0.11774877
1161.00   2.83594069   0.11805109
1162.00   2.83412923   0.11835391
1163.00   2.83231629   0.11865725
1164.00   2.83050186   0.11896109
1165.00   2.82868595   0.11926545
1166.00   2.82686856   0.11957032
1167.00   2.82504969   0.11987571
1168.00   2.82322933   0.12018160
1169.00   2.82140749   0.12048801
1170.00   2.81958416   0.12079494
1171.00   2.81775936   0.12110238
1172.00   2.81593307   0.12141033
1173.00   2.81410531   0.12171880
1174.00   2.81227606   0.12202778
1175.00   2.81044533   0.12233728
1176.00   2.80861311   0.12264730
1177.00   2.80677942   0.12295783
1178.00   2.80494425   0.12326888
1179.00   2.80310759   0.12358045
1180.00   2.80126946   0.12389253
1181.00   2.79942984   0.12420514
1182.00   2.79758875   0.12451826
1183.00   2.79574618   0.12483190
1184.00   2.79390212   0.12514606
1185.00   2.79205659   0.12546075
1186.00   2.79020958   0.12577595
1187.00   2.78836109   0.12609167
1188.00   2.78651112   0.12640791
1189.00   2.78465967   0.12672468
1190.00   2.78280674   0.12704196
1191.00   2.78095234   0.12735977
1192.00   2.77909646   0.12767811
1193.00   2.77723910   0.12799696
1194.00   2.77538026   0.12831634
1195.00   2.77351994   0.12863624
1196.00   2.77165815   0.12895667
1197.00   2.76979488   0.12927762
1198.00   2.76793013   0.12959910
1199.00   2.76606391   0.12992110
1200.00   2.76419621   0.13024363
1201.00   2.76232704   0.13056669
1202.00   2.76045638   0.13089027
1203.00   2.75858426   0.13121438
1204.00   2.75671065   0.13153901
1205.00   2.75483558   0.13186418
1206.00   2.75295902   0.13218987
1207.00   2.75108099   0.13251609
1208.00   2.74920149   0.13284284
1209.00   2.74732051   0.13317012
1210.00   2.74543806   0.13349793
1211.00   2.74355413   0.13382627
1212.00   2.74166873   0.13415515
1213.00   2.73978186   0.13448455
1214.00   2.73789351   0.13481448
1215.00   2.73600369   0.13514495
1216.00   2.73411239   0.13547595
1217.00   2.73221963   0.13580748
1218.00   2.73032538   0.13613954
1219.00   2.72842967   0.13647214
1220.00   2.72653249   0.13680527
1221.00   2.72463383   0.13713894
1222.00   2.72273370   0.13747314
1223.00   2.72083210   0.13780788
1224.00   2.71892902   0.13814315
1225.00   2.71702448   0.13847896
1226.00   2.71511846   0.13881530
1227.00   2.71321097   0.13915218
1228.00   2.71130202   0.13948960
1229.00   2.70939159   0.13982755
1230.00   2.70747969   0.14016605
1231.00   2.70556632   0.14050508
1232.00   2.70365148   0.14084465
1233.00   2.70173517   0.14118476
1234.00   2.69981739   0.14152541
1235.00   2.69789814   0.14186660
1236.00   2.69597743   0.14220833
1237.00   2.69405524   0.14255060
1238.00   2.69213159   0.14289341
1239.00   2.69020646   0.14323676
1240.00   2.68827987   0.14358066
1241.00   2.68635181   0.14392510
1242.00   2.68442228   0.14427008
1243.00   2.68249128   0.14461560
1244.00   2.68055882   0.14496167
1245.00   2.67862489   0.14530828
1246.00   2.67668949   0.14565543
1247.00   2.67475262   0.14600313
1248.00   2.67281429   0.14635138
1249.00   2.67087449   0.14670017
1250.00   2.66893323   0.14704950
1251.00   2.66699050   0.14739938
1252.00   2.66504630   0.14774981
1253.00   2.66310064   0.14810079
1254.00   2.66115351   0.14845231
1255.00   2.65920491   0.14880438
1256.00   2.65725485   0.14915700
1257.00   2.65530333   0.14951017
1258.00   2.65335034   0.14986389
1259.00   2.65139589   0.15021816
1260.00   2.64943997   0.15057297
1261.00   2.64748259   0.15092834
1262.00   2.64552374   0.15128426
1263.00   2.64356343   0.15164072
1264.00   2.64160166   0.15199774
1265.00   2.63963842   0.15235532
1266.00   2.63767372   0.15271344
1267.00   2.63570756   0.15307212
1268.00   2.63373994   0.15343135
1269.00   2.63177085   0.15379113
1270.00   2.62980030   0.15415147
1271.00   2.62782829   0.15451236
1272.00   2.62585481   0.15487380
1273.00   2.62387988   0.15523580
1274.00   2.62190348   0.15559836
1275.00   2.61992562   0.15596147
1276.00   2.61794630   0.15632514
1277.00   2.61596552   0.15668936
1278.00   2.61398328   0.15705414
1279.00   2.61199958   0.15741948
1280.00   2.61001442   0.15778538
1281.00   2.60802780   0.15815183
1282.00   2.60603972   0.15851885
1283.00   2.60405018   0.15888642
1284.00   2.60205918   0.15925455
1285.00   2.60006672   0.15962324
1286.00   2.59807280   0.15999249
1287.00   2.59607742   0.16036230
1288.00   2.59408059   0.16073268
1289.00   2.59208229   0.16110361
1290.00   2.59008254   0.16147510
1291.00   2.58808133   0.16184716
1292.00   2.58607866   0.16221978
1293.00   2.58407454   0.16259296
1294.00   2.58206896   0.16296671
1295.00   2.58006192   0.16334102
1296.00   2.57805342   0.16371589
1297.00   2.57604347   0.16409133
1298.00   2.57403206   0.16446733
1299.00   2.57201919   0.16484390
1300.00   2.57000487   0.16522103
1301.00   2.56798909   0.16559873
1302.00   2.56597186   0.16597700
1303.00   2.56395317   0.16635583
1304.00   2.56193303   0.16673523
1305.00   2.55991143   0.16711520
1306.00   2.55788838   0.16749573
1307.00   2.55586387   0.16787684
1308.00   2.55383791   0.16825851
1309.00   2.55181049   0.16864075
1310.00   2.54978162   0.16902356
1311.00   2.54775130   0.16940694
1312.00   2.54571952   0.16979089
1313.00   2.54368629   0.17017541
1314.00   2.54165161   0.17056050
1315.00   2.53961547   0.17094617
1316.00   2.53757788   0.17133240
1317.00   2.53553884   0.17171921
1318.00   2.53349834   0.17210659
1319.00   2.53145640   0.17249455
1320.00   2.52941300   0.17288307
1321.00   2.52736815   0.17327217
1322.00   2.52532185   0.17366185
1323.00   2.52327410   0.17405210
1324.00   2.52122490   0.17444292
1325.00   2.51917424   0.17483432
1326.00   2.51712214   0.17522630
1327.00   2.51506859   0.17561885
1328.00   2.51301358   0.17601198
1329.00   2.51095713   0.17640568
1330.00   2.50889923   0.17679996
1331.00   2.50683987   0.17719482
1332.00   2.50477907   0.17759026
1333.00   2.50271682   0.17798628
1334.00   2.50065312   0.17838287
1335.00   2.49858797   0.17878004
1336.00   2.49652137   0.17917780
1337.00   2.49445333   0.17957613
1338.00   2.49238384   0.17997505
1339.00   2.49031290   0.18037454
1340.00   2.48824051   0.18077462
1341.00   2.48616667   0.18117527
1342.00   2.48409139   0.18157651
1343.00   2.48201466   0.18197834
1344.00   2.47993648   0.18238074
1345.00   2.47785686   0.18278373
1346.00   2.47577579   0.18318730
1347.00   2.47369328   0.18359145
1348.00   2.47160932   0.18399619
1349.00   2.46952391   0.18440152
1350.00   2.46743706   0.18480742
1351.00   2.46534877   0.18521392
1352.00   2.46325903   0.18562100
1353.00   2.46116784   0.18602866
1354.00   2.45907521   0.18643692
1355.00   2.45698114   0.18684576
1356.00   2.45488562   0.18725518
1357.00   2.45278865   0.18766520
1358.00   2.45069025   0.18807580
1359.00   2.44859040   0.18848699
1360.00   2.44648911   0.18889877
1361.00   2.44438637   0.18931114
1362.00   2.44228220   0.18972410
1363.00   2.44017657   0.19013765
1364.00   2.43806951   0.19055179
1365.00   2.43596101   0.19096652
1366.00   2.43385106   0.19138184
1367.00   2.43173967   0.19179775
1368.00   2.42962684   0.19221426
1369.00   2.42751257   0.19263135
1370.00   2.42539686   0.19304904
1371.00   2.42327971   0.19346733
1372.00   2.42116112   0.19388620
1373.00   2.41904108   0.19430567
1374.00   2.41691961   0.19472574
1375.00   2.41479670   0.19514640
1376.00   2.41267235   0.19556765
1377.00   2.41054655   0.19598950
1378.00   2.40841932   0.19641195
1379.00   2.40629065   0.19683499
1380.00   2.40416054   0.19725863
1381.00   2.40202900   0.19768286
1382.00   2.39989601   0.19810769
1383.00   2.39776159   0.19853312
1384.00   2.39562573   0.19895915
1385.00   2.39348843   0.19938578
1386.00   2.39134969   0.19981300
1387.00   2.38920952   0.20024083
1388.00   2.38706791   0.20066925
1389.00   2.38492486   0.20109828
1390.00   2.38278038   0.20152790
1391.00   2.38063446   0.20195813
1392.00   2.37848710   0.20238895
1393.00   2.37633831   0.20282038
1394.00   2.37418808   0.20325241
1395.00   2.37203642   0.20368505
1396.00   2.36988332   0.20411828
1397.00   2.36772879   0.20455212
1398.00   2.36557282   0.20498656
1399.00   2.36341542   0.20542161
1400.00   2.36125658   0.20585726
1401.00   2.35909631   0.20629351
1402.00   2.35693461   0.20673037
1403.00   2.35477147   0.20716783
1404.00   2.35260690   0.20760590
1405.00   2.35044089   0.20804458
1406.00   2.34827345   0.20848386
1407.00   2.34610458   0.20892375
1408.00   2.34393428   0.20936425
1409.00   2.34176255   0.20980535
1410.00   2.33958938   0.21024707
1411.00   2.33741478   0.21068939
1412.00   2.33523875   0.21113232
1413.00   2.33306129   0.21157586
1414.00   2.33088240   0.21202000
1415.00   2.32870207   0.21246476
1416.00   2.32652032   0.21291013
1417.00   2.32433713   0.21335611
1418.00   2.32215252   0.21380270
1419.00   2.31996647   0.21424990
1420.00   2.31777900   0.21469772
1421.00   2.31559009   0.21514614
1422.00   2.31339976   0.21559518
1423.00   2.31120800   0.21604483
1424.00   2.30901481   0.21649509
1425.00   2.30682019   0.21694597
1426.00   2.30462414   0.21739747
1427.00   2.30242666   0.21784957
1428.00   2.30022776   0.21830229
1429.00   2.29802742   0.21875563
1430.00   2.29582566   0.21920958
1431.00   2.29362248   0.21966415
1432.00   2.29141786   0.22011934
1433.00   2.28921182   0.22057514
1434.00   2.28700436   0.22103156
1435.00   2.28479546   0.22148859
1436.00   2.28258514   0.22194625
1437.00   2.28037340   0.22240452
1438.00   2.27816022   0.22286341
1439.00   2.27594563   0.22332292
1440.00   2.27372960   0.22378305
1441.00   2.27151216   0.22424380
1442.00   2.26929329   0.22470516
1443.00   2.26707299   0.22516715
1444.00   2.26485127   0.22562976
1445.00   2.26262812   0.22609300
1446.00   2.26040356   0.22655685
1447.00   2.25817756   0.22702132
1448.00   2.25595015   0.22748642
1449.00   2.25372131   0.22795214
1450.00   2.25149105   0.22841848
1451.00   2.24925936   0.22888545
1452.00   2.24702626   0.22935304
1453.00   2.24479173   0.22982126
1454.00   2.24255578   0.23029010
1455.00   2.24031841   0.23075956
1456.00   2.23807961   0.23122965
1457.00   2.23583940   0.23170037
1458.00   2.23359776   0.23217171
1459.00   2.23135470   0.23264368
1460.00   2.22911022   0.23311627
1461.00   2.22686433   0.23358950
1462.00   2.22461701   0.23406335
1463.00   2.22236827   0.23453782
1464.00   2.22011811   0.23501293
1465.00   2.21786653   0.23548867
1466.00   2.21561354   0.23596503
1467.00   2.21335912   0.23644202
1468.00   2.21110329   0.23691965
1469.00   2.20884604   0.23739790
1470.00   2.20658737   0.23787679
1471.00   2.20432728   0.23835630
1472.00   2.20206577   0.23883645
1473.00   2.19980285   0.23931723
1474.00   2.19753850   0.23979864
1475.00   2.19527275   0.24028068
1476.00   2.19300557   0.24076336
1477.00   2.19073698   0.24124667
1478.00   2.18846697   0.24173061
1479.00   2.18619554   0.24221519
1480.00   2.18392270   0.24270040
1481.00   2.18164845   0.24318625
1482.00   2.17937278   0.24367273
1483.00   2.17709569   0.24415985
1484.00   2.17481719   0.24464760
1485.00   2.17253727   0.24513599
1486.00   2.17025594   0.24562501
1487.00   2.16797319   0.24611468
1488.00   2.16568903   0.24660498
1489.00   2.16340346   0.24709591
1490.00   2.16111647   0.24758749
1491.00   2.15882807   0.24807970
1492.00   2.15653826   0.24857256
1493.00   2.15424703   0.24906605
1494.00   2.15195439   0.24956018
1495.00   2.14966034   0.25005495
1496.00   2.14736488   0.25055036
1497.00   2.14506801   0.25104642
1498.00   2.14276972   0.25154311
1499.00   2.14047002   0.25204045
1500.00   2.13816891   0.25253842
1501.00   2.13586639   0.25303704
1502.00   2.13356246   0.25353630
1503.00   2.13125712   0.25403621
1504.00   2.12895036   0.25453675
1505.00   2.12664220   0.25503795
1506.00   2.12433263   0.25553978
1507.00   2.12202165   0.25604226
1508.00   2.11970926   0.25654539
1509.00   2.11739546   0.25704916
1510.00   2.11508025   0.25755357
1511.00   2.11276363   0.25805863
1512.00   2.11044561   0.25856434
1513.00   2.10812617   0.25907069
1514.00   2.10580533   0.25957769
1515.00   2.10348308   0.26008534
1516.00   2.10115943   0.26059364
1517.00   2.09883436   0.26110258
1518.00   2.09650789   0.26161218
1519.00   2.09418001   0.26212242
1520.00   2.09185073   0.26263331
1521.00   2.08952004   0.26314485
1522.00   2.08718795   0.26365704
1523.00   2.08485444   0.26416988
1524.00   2.08251954   0.26468337
1525.00   2.08018322   0.26519751
1526.00   2.07784551   0.26571230
1527.00   2.07550638   0.26622775
1528.00   2.07316586   0.26674385
1529.00   2.07082393   0.26726060
1530.00   2.06848059   0.26777800
1531.00   2.06613585   0.26829605
1532.00   2.06378971   0.26881476
1533.00   2.06144217   0.26933413
1534.00   2.05909322   0.26985414
1535.00   2.05674287   0.27037482
1536.00   2.05439111   0.27089614
1537.00   2.05203796   0.27141813
1538.00   2.04968340   0.27194077
1539.00   2.04732744   0.27246406
1540.00   2.04497007   0.27298801
1541.00   2.04261131   0.27351262
1542.00   2.04025115   0.27403789
1543.00   2.03788958   0.27456381
1544.00   2.03552662   0.27509039
1545.00   2.03316225   0.27561763
1546.00   2.03079648   0.27614553
1547.00   2.02842932   0.27667408
1548.00   2.02606075   0.27720330
1549.00   2.02369078   0.27773318
1550.00   2.02131942   0.27826371
1551.00   2.01894665   0.27879491
1552.00   2.01657249   0.27932677
1553.00   2.01419693   0.27985929
1554.00   2.01181997   0.28039247
1555.00   2.00944161   0.28092631
1556.00   2.00706186   0.28146082
1557.00   2.00468071   0.28199599
1558.00   2.00229816   0.28253182
1559.00   1.99991421   0.28306831
1560.00   1.99752887   0.28360547
1561.00   1.99514213   0.28414330
1562.00   1.99275399   0.28468178
1563.00   1.99036446   0.28522094
1564.00   1.98797353   0.28576075
1565.00   1.98558121   0.28630124
1566.00   1.98318749   0.28684239
1567.00   1.98079237   0.28738420
1568.00   1.97839587   0.28792668
1569.00   1.97599796   0.28846983
1570.00   1.97359867   0.28901365
1571.00   1.97119797   0.28955814
1572.00   1.96879589   0.29010329
1573.00   1.96639241   0.29064911
1574.00   1.96398754   0.29119560
1575.00   1.96158127   0.29174276
1576.00   1.95917361   0.29229059
1577.00   1.95676456   0.29283909
1578.00   1.95435412   0.29338826
1579.00   1.95194228   0.29393810
1580.00   1.94952906   0.29448861
1581.00   1.94711444   0.29503980
1582.00   1.94469843   0.29559165
1583.00   1.94228103   0.29614418
1584.00   1.93986224   0.29669738
1585.00   1.93744205   0.29725125
1586.00   1.93502048   0.29780580
1587.00   1.93259752   0.29836101
1588.00   1.93017317   0.29891691
1589.00   1.92774742   0.29947348
1590.00   1.92532029   0.30003072
1591.00   1.92289177   0.30058864
1592.00   1.92046186   0.30114723
1593.00   1.91803056   0.30170650
1594.00   1.91559788   0.30226644
1595.00   1.91316380   0.30282706
1596.00   1.91072834   0.30338836
1597.00   1.90829149   0.30395034
1598.00   1.90585325   0.30451299
1599.00   1.90341362   0.30507632
1600.00   1.90097261   0.30564033
1601.00   1.89853021   0.30620502
1602.00   1.89608643   0.30677039
1603.00   1.89364126   0.30733643
1604.00   1.89119470   0.30790316
1605.00   1.88874676   0.30847056
1606.00   1.88629743   0.30903865
1607.00   1.88384672   0.30960742
1608.00   1.88139462   0.31017687
1609.00   1.87894114   0.31074700
1610.00   1.87648627   0.31131781
1611.00   1.87403002   0.31188930
1612.00   1.87157239   0.31246148
1613.00   1.86911337   0.31303434
1614.00   1.86665297   0.31360788
1615.00   1.86419118   0.31418211
1616.00   1.86172801   0.31475702
1617.00   1.85926346   0.31533262
1618.00   1.85679753   0.31590890
1619.00   1.85433021   0.31648586
1620.00   1.85186152   0.31706351
1621.00   1.84939144   0.31764185
1622.00   1.84691998   0.31822087
1623.00   1.84444714   0.31880058
1624.00   1.84197292   0.31938098
1625.00   1.83949731   0.31996206
1626.00   1.83702033   0.32054383
1627.00   1.83454197   0.32112629
1628.00   1.83206223   0.32170944
1629.00   1.82958110   0.32229327
1630.00   1.82709860   0.32287780
1631.00   1.82461472   0.32346301
1632.00   1.82212946   0.32404892
1633.00   1.81964282   0.32463551
1634.00   1.81715481   0.32522280
1635.00   1.81466541   0.32581077
1636.00   1.81217464   0.32639944
1637.00   1.80968249   0.32698880
1638.00   1.80718896   0.32757885
1639.00   1.80469406   0.32816959
1640.00   1.80219778   0.32876102
1641.00   1.79970012   0.32935315
1642.00   1.79720109   0.32994597
1643.00   1.79470068   0.33053949
1644.00   1.79219889   0.33113370
1645.00   1.78969573   0.33172860
1646.00   1.78719119   0.33232420
1647.00   1.78468528   0.33292049
1648.00   1.78217800   0.33351748
1649.00   1.77966933   0.33411516
1650.00   1.77715930   0.33471354
1651.00   1.77464789   0.33531262
1652.00   1.77213511   0.33591239
1653.00   1.76962095   0.33651286
1654.00   1.76710542   0.33711403
1655.00   1.76458852   0.33771590
1656.00   1.76207024   0.33831846
1657.00   1.75955060   0.33892173
1658.00   1.75702958   0.33952569
1659.00   1.75450718   0.34013035
1660.00   1.75198342   0.34073571
1661.00   1.74945829   0.34134177
1662.00   1.74693178   0.34194853
1663.00   1.74440390   0.34255599
1664.00   1.74187465   0.34316416
1665.00   1.73934404   0.34377302
1666.00   1.73681205   0.34438259
1667.00   1.73427869   0.34499286
1668.00   1.73174396   0.34560383
1669.00   1.72920786   0.34621550
1670.00   1.72667040   0.34682788
1671.00   1.72413156   0.34744096
1672.00   1.72159136   0.34805474
1673.00   1.71904979   0.34866923
1674.00   1.71650684   0.34928443
1675.00   1.71396254   0.34990032
1676.00   1.71141686   0.35051693
1677.00   1.70886982   0.35113424
1678.00   1.70632141   0.35175225
1679.00   1.70377163   0.35237097
1680.00   1.70122049   0.35299040
1681.00   1.69866798   0.35361054
1682.00   1.69611410   0.35423138
1683.00   1.69355886   0.35485293
1684.00   1.69100225   0.35547519
1685.00   1.68844428   0.35609816
1686.00   1.68588494   0.35672183
1687.00   1.68332424   0.35734622
1688.00   1.68076217   0.35797131
1689.00   1.67819874   0.35859712
1690.00   1.67563395   0.35922363
1691.00   1.67306779   0.35985085
1692.00   1.67050027   0.36047879
1693.00   1.66793138   0.36110744
1694.00   1.66536113   0.36173680
1695.00   1.66278952   0.36236687
1696.00   1.66021655   0.36299765
1697.00   1.65764221   0.36362915
1698.00   1.65506652   0.36426135
1699.00   1.65248946   0.36489428
1700.00   1.64991104   0.36552791
1701.00   1.64733126   0.36616226
1702.00   1.64475012   0.36679732
1703.00   1.64216761   0.36743310
1704.00   1.63958375   0.36806960
1705.00   1.63699853   0.36870681
1706.00   1.63441194   0.36934473
1707.00   1.63182400   0.36998337
1708.00   1.62923470   0.37062273
1709.00   1.62664404   0.37126280
1710.00   1.62405202   0.37190359
1711.00   1.62145864   0.37254510
1712.00   1.61886391   0.37318733
1713.00   1.61626781   0.37383027
1714.00   1.61367036   0.37447394
1715.00   1.61107155   0.37511832
1716.00   1.60847139   0.37576342
1717.00   1.60586986   0.37640924
1718.00   1.60326698   0.37705578
1719.00   1.60066275   0.37770304
1720.00   1.59805716   0.37835103
1721.00   1.59545021   0.37899973
1722.00   1.59284191   0.37964915
1723.00   1.59023225   0.38029930
1724.00   1.58762123   0.38095017
1725.00   1.58500886   0.38160176
1726.00   1.58239514   0.38225407
1727.00   1.57978006   0.38290711
1728.00   1.57716363   0.38356086
1729.00   1.57454585   0.38421535
1730.00   1.57192671   0.38487055
1731.00   1.56930622   0.38552649
1732.00   1.56668437   0.38618314
1733.00   1.56406117   0.38684052
1734.00   1.56143662   0.38749863
1735.00   1.55881072   0.38815746
1736.00   1.55618347   0.38881702
1737.00   1.55355486   0.38947731
1738.00   1.55092491   0.39013832
1739.00   1.54829360   0.39080006
1740.00   1.54566094   0.39146252
1741.00   1.54302693   0.39212572
1742.00   1.54039157   0.39278964
1743.00   1.53775486   0.39345429
1744.00   1.53511680   0.39411967
1745.00   1.53247739   0.39478578
1746.00   1.52983664   0.39545262
1747.00   1.52719453   0.39612019
1748.00   1.52455107   0.39678848
1749.00   1.52190627   0.39745751
1750.00   1.51926012   0.39812727
1751.00   1.51661262   0.39879777
1752.00   1.51396377   0.39946899
1753.00   1.51131357   0.40014094
1754.00   1.50866203   0.40081363
1755.00   1.50600914   0.40148705
1756.00   1.50335491   0.40216120
1757.00   1.50069933   0.40283609
1758.00   1.49804240   0.40351171
1759.00   1.49538412   0.40418806
1760.00   1.49272450   0.40486515
1761.00   1.49006354   0.40554297
1762.00   1.48740123   0.40622153
1763.00   1.48473758   0.40690083
1764.00   1.48207258   0.40758085
1765.00   1.47940624   0.40826162
1766.00   1.47673855   0.40894312
1767.00   1.47406952   0.40962536
1768.00   1.47139915   0.41030833
1769.00   1.46872743   0.41099205
1770.00   1.46605437   0.41167650
1771.00   1.46337997   0.41236168
1772.00   1.46070423   0.41304761
1773.00   1.45802714   0.41373428
1774.00   1.45534871   0.41442168
1775.00   1.45266894   0.41510983
1776.00   1.44998783   0.41579871
1777.00   1.44730538   0.41648833
1778.00   1.44462159   0.41717870
1779.00   1.44193646   0.41786980
1780.00   1.43924999   0.41856165
1781.00   1.43656217   0.41925424
1782.00   1.43387302   0.41994757
1783.00   1.43118253   0.42064164
1784.00   1.42849070   0.42133645
1785.00   1.42579753   0.42203201
1786.00   1.42310302   0.42272831
1787.00   1.42040718   0.42342535
1788.00   1.41771000   0.42412314
1789.00   1.41501147   0.42482167
1790.00   1.41231162   0.42552095
1791.00   1.40961042   0.42622097
1792.00   1.40690789   0.42692173
1793.00   1.40420402   0.42762324
1794.00   1.40149881   0.42832550
1795.00   1.39879227   0.42902851
1796.00   1.39608439   0.42973226
1797.00   1.39337518   0.43043675
1798.00   1.39066463   0.43114200
1799.00   1.38795275   0.43184799
1800.00   1.38523953   0.43255473
1801.00   1.38252498   0.43326222
1802.00   1.37980910   0.43397045
1803.00   1.37709188   0.43467944
1804.00   1.37437332   0.43538917
1805.00   1.37165344   0.43609966
1806.00   1.36893222   0.43681089
1807.00   1.36620966   0.43752287
1808.00   1.36348578   0.43823561
1809.00   1.36076056   0.43894909
1810.00   1.35803401   0.43966333
1811.00   1.35530613   0.44037832
1812.00   1.35257692   0.44109406
1813.00   1.34984637   0.44181055
1814.00   1.34711450   0.44252779
1815.00   1.34438129   0.44324579
1816.00   1.34164676   0.44396454
1817.00   1.33891089   0.44468405
1818.00   1.33617370   0.44540431
1819.00   1.33343517   0.44612532
1820.00   1.33069532   0.44684709
1821.00   1.32795414   0.44756961
1822.00   1.32521162   0.44829289
1823.00   1.32246778   0.44901692
1824.00   1.31972262   0.44974171
1825.00   1.31697612   0.45046725
1826.00   1.31422830   0.45119355
1827.00   1.31147915   0.45192061
1828.00   1.30872867   0.45264843
1829.00   1.30597686   0.45337700
1830.00   1.30322373   0.45410633
1831.00   1.30046928   0.45483642
1832.00   1.29771349   0.45556727
1833.00   1.29495638   0.45629887
1834.00   1.29219795   0.45703124
1835.00   1.28943819   0.45776437
1836.00   1.28667711   0.45849825
1837.00   1.28391470   0.45923290
1838.00   1.28115096   0.45996830
1839.00   1.27838591   0.46070447
1840.00   1.27561953   0.46144140
1841.00   1.27285182   0.46217909
1842.00   1.27008280   0.46291754
1843.00   1.26731245   0.46365675
1844.00   1.26454077   0.46439673
1845.00   1.26176778   0.46513747
1846.00   1.25899346   0.46587897
1847.00   1.25621782   0.46662124
1848.00   1.25344086   0.46736427
1849.00   1.25066258   0.46810806
1850.00   1.24788298   0.46885262
1851.00   1.24510206   0.46959794
1852.00   1.24231981   0.47034403
1853.00   1.23953625   0.47109088
1854.00   1.23675136   0.47183850
1855.00   1.23396516   0.47258689
1856.00   1.23117764   0.47333604
1857.00   1.22838880   0.47408596
1858.00   1.22559864   0.47483665
1859.00   1.22280716   0.47558810
1860.00   1.22001436   0.47634032
1861.00   1.21722025   0.47709331
1862.00   1.21442482   0.47784707
1863.00   1.21162807   0.47860159
1864.00   1.20883000   0.47935689
1865.00   1.20603062   0.48011296
1866.00   1.20322992   0.48086979
1867.00   1.20042790   0.48162740
1868.00   1.19762457   0.48238577
1869.00   1.19481992   0.48314492
1870.00   1.19201396   0.48390484
1871.00   1.18920668   0.48466552
1872.00   1.18639809   0.48542698
1873.00   1.18358818   0.48618922
1874.00   1.18077696   0.48695222
1875.00   1.17796442   0.48771600
1876.00   1.17515057   0.48848055
1877.00   1.17233541   0.48924587
1878.00   1.16951894   0.49001197
1879.00   1.16670115   0.49077884
1880.00   1.16388204   0.49154649
1881.00   1.16106163   0.49231491
1882.00   1.15823991   0.49308411
1883.00   1.15541687   0.49385408
1884.00   1.15259252   0.49462482
1885.00   1.14976686   0.49539635
1886.00   1.14693989   0.49616865
1887.00   1.14411161   0.49694172
1888.00   1.14128202   0.49771557
1889.00   1.13845111   0.49849020
1890.00   1.13561890   0.49926561
1891.00   1.13278538   0.50004180
1892.00   1.12995055   0.50081876
1893.00   1.12711441   0.50159650
1894.00   1.12427696   0.50237502
1895.00   1.12143821   0.50315432
1896.00   1.11859814   0.50393440
1897.00   1.11575677   0.50471526
1898.00   1.11291409   0.50549690
1899.00   1.11007010   0.50627932
1900.00   1.10722481   0.50706252
1901.00   1.10437821   0.50784650
1902.00   1.10153030   0.50863127
1903.00   1.09868109   0.50941681
1904.00   1.09583057   0.51020314
1905.00   1.09297875   0.51099025
1906.00   1.09012562   0.51177814
1907.00   1.08727118   0.51256682
1908.00   1.08441544   0.51335628
1909.00   1.08155840   0.51414652
1910.00   1.07870005   0.51493755
1911.00   1.07584040   0.51572936
1912.00   1.07297945   0.51652196
1913.00   1.07011719   0.51731534
1914.00   1.06725363   0.51810950
1915.00   1.06438876   0.51890446
1916.00   1.06152260   0.51970019
1917.00   1.05865513   0.52049672
1918.00   1.05578636   0.52129403
1919.00   1.05291629   0.52209213
1920.00   1.05004491   0.52289101
1921.00   1.04717224   0.52369069
1922.00   1.04429826   0.52449115
1923.00   1.04142299   0.52529240
1924.00   1.03854641   0.52609443
1925.00   1.03566854   0.52689726
1926.00   1.03278936   0.52770088
1927.00   1.02990889   0.52850528
1928.00   1.02702712   0.52931048
1929.00   1.02414404   0.53011646
1930.00   1.02125967   0.53092324
1931.00   1.01837401   0.53173080
1932.00   1.01548704   0.53253916
1933.00   1.01259878   0.53334831
1934.00   1.00970921   0.53415825
1935.00   1.00681836   0.53496898
1936.00   1.00392620   0.53578051
1937.00   1.00103275   0.53659283
1938.00   0.99813800   0.53740594
1939.00   0.99524196   0.53821984
1940.00   0.99234462   0.53903454
1941.00   0.98944599   0.53985003
1942.00   0.98654606   0.54066632
1943.00   0.98364483   0.54148340
1944.00   0.98074232   0.54230128
1945.00   0.97783850   0.54311995
1946.00   0.97493340   0.54393941
1947.00   0.97202700   0.54475968
1948.00   0.96911930   0.54558074
1949.00   0.96621032   0.54640259
1950.00   0.96330004   0.54722524
1951.00   0.96038847   0.54804869
1952.00   0.95747561   0.54887294
1953.00   0.95456145   0.54969798
1954.00   0.95164600   0.55052383
1955.00   0.94872927   0.55135047
1956.00   0.94581124   0.55217791
1957.00   0.94289192   0.55300615
1958.00   0.93997131   0.55383518
1959.00   0.93704941   0.55466502
1960.00   0.93412622   0.55549566
1961.00   0.93120174   0.55632710
1962.00   0.92827597   0.55715934
1963.00   0.92534891   0.55799238
1964.00   0.92242057   0.55882622
1965.00   0.91949093   0.55966086
1966.00   0.91656001   0.56049631
1967.00   0.91362780   0.56133255
1968.00   0.91069430   0.56216960
1969.00   0.90775952   0.56300745
1970.00   0.90482345   0.56384611
1971.00   0.90188609   0.56468557
1972.00   0.89894744   0.56552583
1973.00   0.89600751   0.56636690
1974.00   0.89306629   0.56720877
1975.00   0.89012379   0.56805144
1976.00   0.88718000   0.56889492
1977.00   0.88423493   0.56973921
1978.00   0.88128857   0.57058430
1979.00   0.87834093   0.57143020
1980.00   0.87539201   0.57227690
1981.00   0.87244180   0.57312442
1982.00   0.86949031   0.57397273
1983.00   0.86653753   0.57482186
1984.00   0.86358347   0.57567179
1985.00   0.86062813   0.57652253
1986.00   0.85767151   0.57737408
1987.00   0.85471360   0.57822644
1988.00   0.85175442   0.57907960
1989.00   0.84879395   0.57993358
1990.00   0.84583220   0.58078836
1991.00   0.84286917   0.58164396
1992.00   0.83990486   0.58250036
1993.00   0.83693927   0.58335757
1994.00   0.83397239   0.58421560
1995.00   0.83100424   0.58507443
1996.00   0.82803481   0.58593408
1997.00   0.82506410   0.58679454
1998.00   0.82209212   0.58765581
1999.00   0.81911885   0.58851790
2000.00   0.81614430   0.58938079
