wavelength(nm)         real         imag
200.00   3.77177414   0.00245063
201.00   3.77048915   0.00248756
202.00   3.76919776   0.00252487
203.00   3.76789997   0.00256254
204.00   3.76659578   0.00260059
205.00   3.76528520   0.00263901
206.00   3.76396821   0.00267781
207.00   3.76264482   0.00271699
208.00   3.76131504   0.00275654
209.00   3.75997886   0.00279648
210.00   3.75863628   0.00283680
211.00   3.75728730   0.00287751
212.00   3.75593193   0.00291861
213.00   3.75457015   0.00296009
214.00   3.75320198   0.00300197
215.00   3.75182741   0.00304424
216.00   3.75044644   0.00308690
217.00   3.74905908   0.00312996
218.00   3.74766532   0.00317342
219.00   3.74626516   0.00321728
220.00   3.74485860   0.00326154
221.00   3.74344565   0.00330620
222.00   3.74202631   0.00335127
223.00   3.74060056   0.00339675
224.00   3.73916842   0.00344264
225.00   3.73772988   0.00348894
226.00   3.73628495   0.00353565
227.00   3.73483362   0.00358277
228.00   3.73337590   0.00363032
229.00   3.73191178   0.00367828
230.00   3.73044127   0.00372666
231.00   3.72896436   0.00377547
232.00   3.72748105   0.00382469
233.00   3.72599135   0.00387435
234.00   3.72449526   0.00392443
235.00   3.72299277   0.00397494
236.00   3.72148389   0.00402588
237.00   3.71996861   0.00407726
238.00   3.71844694   0.00412907
239.00   3.71691888   0.00418132
240.00   3.71538442   0.00423401
241.00   3.71384357   0.00428713
242.00   3.71229633   0.00434070
243.00   3.71074269   0.00439472
244.00   3.70918266   0.00444918
245.00   3.70761623   0.00450408
246.00   3.70604342   0.00455944
247.00   3.70446421   0.00461525
248.00   3.70287861   0.00467151
249.00   3.70128662   0.00472823
250.00   3.69968823   0.00478540
251.00   3.69808346   0.00484303
252.00   3.69647229   0.00490113
253.00   3.69485473   0.00495968
254.00   3.69323078   0.00501870
255.00   3.69160044   0.00507819
256.00   3.68996371   0.00513814
257.00   3.68832059   0.00519857
258.00   3.68667107   0.00525946
259.00   3.68501517   0.00532083
260.00   3.68335288   0.00538268
261.00   3.68168419   0.00544500
262.00   3.68000912   0.00550780
263.00   3.67832766   0.00557108
264.00   3.67663981   0.00563484
265.00   3.67494557   0.00569909
266.00   3.67324494   0.00576382
267.00   3.67153792   0.00582904
268.00   3.66982451   0.00589476
269.00   3.66810471   0.00596096
270.00   3.66637853   0.00602766
271.00   3.66464596   0.00609485
272.00   3.66290700   0.00616254
273.00   3.66116165   0.00623073
274.00   3.65940992   0.00629942
275.00   3.65765179   0.00636861
276.00   3.65588728   0.00643830
277.00   3.65411639   0.00650851
278.00   3.65233910   0.00657922
279.00   3.65055543   0.00665044
280.00   3.64876538   0.00672217
281.00   3.64696894   0.00679442
282.00   3.64516611   0.00686718
283.00   3.64335689   0.00694046
284.00   3.64154129   0.00701425
285.00   3.63971931   0.00708857
286.00   3.63789094   0.00716341
287.00   3.63605618   0.00723878
288.00   3.63421504   0.00731467
289.00   3.63236752   0.00739109
290.00   3.63051361   0.00746804
291.00   3.62865332   0.00754552
292.00   3.62678664   0.00762354
293.00   3.62491358   0.00770209
294.00   3.62303414   0.00778118
295.00   3.62114831   0.00786081
296.00   3.61925610   0.00794098
297.00   3.61735751   0.00802169
298.00   3.61545253   0.00810295
299.00   3.61354117   0.00818475
300.00   3.61162343   0.00826710
301.00   3.60969931   0.00835000
302.00   3.60776880   0.00843345
303.00   3.60583192   0.00851746
304.00   3.60388865   0.00860202
305.00   3.60193900   0.00868714
306.00   3.59998297   0.00877282
307.00   3.59802056   0.00885906
308.00   3.59605177   0.00894586
309.00   3.59407660   0.00903323
310.00   3.59209505   0.00912116
311.00   3.59010711   0.00920967
312.00   3.58811280   0.00929874
313.00   3.58611211   0.00938838
314.00   3.58410504   0.00947860
315.00   3.58209159   0.00956940
316.00   3.58007176   0.00966077
317.00   3.57804556   0.00975272
318.00   3.57601297   0.00984525
319.00   3.57397401   0.00993836
320.00   3.57192867   0.01003206
321.00   3.56987695   0.01012635
322.00   3.56781885   0.01022122
323.00   3.56575438   0.01031669
324.00   3.56368353   0.01041274
325.00   3.56160630   0.01050939
326.00   3.55952269   0.01060664
327.00   3.55743271   0.01070448
328.00   3.55533636   0.01080292
329.00   3.55323362   0.01090197
330.00   3.55112451   0.01100161
331.00   3.54900903   0.01110186
332.00   3.54688717   0.01120272
333.00   3.54475894   0.01130419
334.00   3.54262433   0.01140626
335.00   3.54048334   0.01150895
336.00   3.53833599   0.01161225
337.00   3.53618225   0.01171617
338.00   3.53402215   0.01182071
339.00   3.53185567   0.01192586
340.00   3.52968282   0.01203164
341.00   3.52750359   0.01213804
342.00   3.52531799   0.01224506
343.00   3.52312602   0.01235271
344.00   3.52092768   0.01246099
345.00   3.51872296   0.01256990
346.00   3.51651187   0.01267944
347.00   3.51429441   0.01278961
348.00   3.51207058   0.01290042
349.00   3.50984038   0.01301187
350.00   3.50760381   0.01312396
351.00   3.50536086   0.01323668
352.00   3.50311155   0.01335006
353.00   3.50085586   0.01346407
354.00   3.49859381   0.01357873
355.00   3.49632539   0.01369404
356.00   3.49405059   0.01381001
357.00   3.49176943   0.01392662
358.00   3.48948190   0.01404389
359.00   3.48718800   0.01416181
360.00   3.48488773   0.01428039
361.00   3.48258109   0.01439963
362.00   3.48026808   0.01451953
363.00   3.47794871   0.01464009
364.00   3.47562297   0.01476132
365.00   3.47329086   0.01488321
366.00   3.47095239   0.01500578
367.00   3.46860755   0.01512901
368.00   3.46625634   0.01525292
369.00   3.46389877   0.01537750
370.00   3.46153483   0.01550275
371.00   3.45916452   0.01562868
372.00   3.45678785   0.01575529
373.00   3.45440481   0.01588259
374.00   3.45201541   0.01601056
375.00   3.44961965   0.01613922
376.00   3.44721752   0.01626857
377.00   3.44480902   0.01639861
378.00   3.44239416   0.01652933
379.00   3.43997294   0.01666075
380.00   3.43754536   0.01679286
381.00   3.43511141   0.01692567
382.00   3.43267110   0.01705917
383.00   3.43022442   0.01719338
384.00   3.42777139   0.01732828
385.00   3.42531199   0.01746389
386.00   3.42284623   0.01760020
387.00   3.42037411   0.01773722
388.00   3.41789563   0.01787495
389.00   3.41541079   0.01801338
390.00   3.41291958   0.01815253
391.00   3.41042202   0.01829239
392.00   3.40791809   0.01843297
393.00   3.40540781   0.01857427
394.00   3.40289117   0.01871628
395.00   3.40036816   0.01885902
396.00   3.39783880   0.01900248
397.00   3.39530308   0.01914666
398.00   3.39276100   0.01929157
399.00   3.39021257   0.01943721
400.00   3.38765777   0.01958358
401.00   3.38509662   0.01973068
402.00   3.38252911   0.01987851
403.00   3.37995524   0.02002708
404.00   3.37737502   0.02017639
405.00   3.37478844   0.02032644
406.00   3.37219550   0.02047722
407.00   3.36959621   0.02062875
408.00   3.36699056   0.02078103
409.00   3.36437856   0.02093405
410.00   3.36176020   0.02108782
411.00   3.35913548   0.02124233
412.00   3.35650442   0.02139761
413.00   3.35386700   0.02155363
414.00   3.35122322   0.02171041
415.00   3.34857309   0.02186795
416.00   3.34591661   0.02202624
417.00   3.34325377   0.02218530
418.00   3.34058458   0.02234512
419.00   3.33790904   0.02250570
420.00   3.33522715   0.02266705
421.00   3.33253890   0.02282917
422.00   3.32984431   0.02299206
423.00   3.32714336   0.02315572
424.00   3.32443606   0.02332015
425.00   3.32172241   0.02348536
426.00   3.31900241   0.02365135
427.00   3.31627606   0.02381811
428.00   3.31354336   0.02398566
429.00   3.31080431   0.02415398
430.00   3.30805891   0.02432310
431.00   3.30530716   0.02449300
432.00   3.30254906   0.02466368
433.00   3.29978462   0.02483516
434.00   3.29701382   0.02500743
435.00   3.29423668   0.02518049
436.00   3.29145320   0.02535435
437.00   3.28866336   0.02552900
438.00   3.28586718   0.02570445
439.00   3.28306465   0.02588071
440.00   3.28025577   0.02605776
441.00   3.27744055   0.02623562
442.00   3.27461899   0.02641429
443.00   3.27179108   0.02659376
444.00   3.26895682   0.02677404
445.00   3.26611622   0.02695514
446.00   3.26326927   0.02713705
447.00   3.26041598   0.02731977
448.00   3.25755635   0.02750331
449.00   3.25469037   0.02768767
450.00   3.25181805   0.02787285
451.00   3.24893939   0.02805885
452.00   3.24605438   0.02824568
453.00   3.24316304   0.02843333
454.00   3.24026535   0.02862181
455.00   3.23736132   0.02881112
456.00   3.23445094   0.02900126
457.00   3.23153423   0.02919223
458.00   3.22861118   0.02938404
459.00   3.22568178   0.02957669
460.00   3.22274605   0.02977017
461.00   3.21980398   0.02996449
462.00   3.21685556   0.03015966
463.00   3.21390081   0.03035567
464.00   3.21093972   0.03055253
465.00   3.20797229   0.03075023
466.00   3.20499853   0.03094878
467.00   3.20201842   0.03114819
468.00   3.19903198   0.03134844
469.00   3.19603920   0.03154956
470.00   3.19304008   0.03175152
471.00   3.19003463   0.03195435
472.00   3.18702284   0.03215804
473.00   3.18400472   0.03236259
474.00   3.18098026   0.03256800
475.00   3.17794947   0.03277428
476.00   3.17491234   0.03298142
477.00   3.17186887   0.03318944
478.00   3.16881908   0.03339832
479.00   3.16576294   0.03360808
480.00   3.16270048   0.03381872
481.00   3.15963168   0.03403023
482.00   3.15655655   0.03424261
483.00   3.15347509   0.03445588
484.00   3.15038729   0.03467003
485.00   3.14729316   0.03488506
486.00   3.14419271   0.03510098
487.00   3.14108592   0.03531779
488.00   3.13797280   0.03553548
489.00   3.13485335   0.03575407
490.00   3.13172756   0.03597355
491.00   3.12859545   0.03619392
492.00   3.12545701   0.03641519
493.00   3.12231224   0.03663736
494.00   3.11916115   0.03686042
495.00   3.11600372   0.03708439
496.00   3.11283997   0.03730926
497.00   3.10966989   0.03753504
498.00   3.10649348   0.03776172
499.00   3.10331074   0.03798931
500.00   3.10012168   0.03821782
501.00   3.09692629   0.03844723
502.00   3.09372457   0.03867756
503.00   3.09051653   0.03890881
504.00   3.08730217   0.03914097
505.00   3.08408148   0.03937405
506.00   3.08085446   0.03960806
507.00   3.07762112   0.03984298
508.00   3.07438146   0.04007883
509.00   3.07113547   0.04031561
510.00   3.06788316   0.04055332
511.00   3.06462453   0.04079196
512.00   3.06135958   0.04103153
513.00   3.05808830   0.04127203
514.00   3.05481070   0.04151347
515.00   3.05152678   0.04175585
516.00   3.04823654   0.04199916
517.00   3.04493998   0.04224342
518.00   3.04163710   0.04248862
519.00   3.03832789   0.04273477
520.00   3.03501237   0.04298186
521.00   3.03169053   0.04322990
522.00   3.02836237   0.04347889
523.00   3.02502789   0.04372883
524.00   3.02168710   0.04397972
525.00   3.01833998   0.04423157
526.00   3.01498655   0.04448438
527.00   3.01162681   0.04473815
528.00   3.00826074   0.04499287
529.00   3.00488836   0.04524857
530.00   3.00150966   0.04550522
531.00   2.99812465   0.04576284
532.00   2.99473332   0.04602143
533.00   2.99133568   0.04628099
534.00   2.98793172   0.04654152
535.00   2.98452145   0.04680302
536.00   2.98110487   0.04706550
537.00   2.97768197   0.04732896
538.00   2.97425276   0.04759339
539.00   2.97081723   0.04785880
540.00   2.96737540   0.04812520
541.00   2.96392725   0.04839258
542.00   2.96047279   0.04866095
543.00   2.95701202   0.04893030
544.00   2.95354494   0.04920065
545.00   2.95007155   0.04947198
546.00   2.94659184   0.04974431
547.00   2.94310583   0.05001764
548.00   2.93961351   0.05029196
549.00   2.93611488   0.05056728
550.00   2.93260995   0.05084359
551.00   2.92909870   0.05112091
552.00   2.92558115   0.05139924
553.00   2.92205729   0.05167857
554.00   2.91852712   0.05195891
555.00   2.91499065   0.05224025
556.00   2.91144787   0.05252261
557.00   2.90789878   0.05280598
558.00   2.90434339   0.05309037
559.00   2.90078169   0.05337577
560.00   2.89721369   0.05366219
561.00   2.89363939   0.05394962
562.00   2.89005878   0.05423809
563.00   2.88647186   0.05452757
564.00   2.88287865   0.05481808
565.00   2.87927913   0.05510961
566.00   2.87567331   0.05540218
567.00   2.87206119   0.05569578
568.00   2.86844276   0.05599040
569.00   2.86481804   0.05628607
570.00   2.86118701   0.05658276
571.00   2.85754969   0.05688050
572.00   2.85390606   0.05717928
573.00   2.85025614   0.05747909
574.00   2.84659991   0.05777995
575.00   2.84293739   0.05808186
576.00   2.83926857   0.05838481
577.00   2.83559345   0.05868881
578.00   2.83191203   0.05899386
579.00   2.82822432   0.05929996
580.00   2.82453031   0.05960712
581.00   2.82083000   0.05991533
582.00   2.81712339   0.06022460
583.00   2.81341050   0.06053492
584.00   2.80969130   0.06084631
585.00   2.80596581   0.06115876
586.00   2.80223403   0.06147228
587.00   2.79849595   0.06178686
588.00   2.79475158   0.06210251
589.00   2.79100092   0.06241923
590.00   2.78724397   0.06273702
591.00   2.78348072   0.06305589
592.00   2.77971118   0.06337583
593.00   2.77593535   0.06369684
594.00   2.77215322   0.06401894
595.00   2.76836481   0.06434212
596.00   2.76457011   0.06466638
597.00   2.76076911   0.06499172
598.00   2.75696183   0.06531815
599.00   2.75314826   0.06564566
600.00   2.74932840   0.06597427
601.00   2.74550225   0.06630396
602.00   2.74166981   0.06663475
603.00   2.73783109   0.06696664
604.00   2.73398608   0.06729962
605.00   2.73013478   0.06763370
606.00   2.72627720   0.06796888
607.00   2.72241333   0.06830516
608.00   2.71854318   0.06864254
609.00   2.71466674   0.06898103
610.00   2.71078401   0.06932063
611.00   2.70689501   0.06966134
612.00   2.70299972   0.07000315
613.00   2.69909814   0.07034608
614.00   2.69519029   0.07069013
615.00   2.69127615   0.07103529
616.00   2.68735573   0.07138157
617.00   2.68342902   0.07172896
618.00   2.67949604   0.07207748
619.00   2.67555678   0.07242712
620.00   2.67161123   0.07277789
621.00   2.66765941   0.07312978
622.00   2.66370131   0.07348281
623.00   2.65973693   0.07383696
624.00   2.65576626   0.07419224
625.00   2.65178933   0.07454866
626.00   2.64780611   0.07490621
627.00   2.64381662   0.07526491
628.00   2.63982085   0.07562474
629.00   2.63581880   0.07598571
630.00   2.63181048   0.07634782
631.00   2.62779588   0.07671108
632.00   2.62377501   0.07707548
633.00   2.61974786   0.07744104
634.00   2.61571444   0.07780774
635.00   2.61167475   0.07817559
636.00   2.60762878   0.07854460
637.00   2.60357654   0.07891476
638.00   2.59951803   0.07928608
639.00   2.59545324   0.07965856
640.00   2.59138218   0.08003220
641.00   2.58730486   0.08040700
642.00   2.58322126   0.08078296
643.00   2.57913139   0.08116009
644.00   2.57503525   0.08153839
645.00   2.57093285   0.08191786
646.00   2.56682417   0.08229849
647.00   2.56270922   0.08268030
648.00   2.55858801   0.08306329
649.00   2.55446053   0.08344745
650.00   2.55032679   0.08383279
651.00   2.54618677   0.08421931
652.00   2.54204049   0.08460701
653.00   2.53788795   0.08499589
654.00   2.53372914   0.08538596
655.00   2.52956406   0.08577722
656.00   2.52539272   0.08616967
657.00   2.52121512   0.08656330
658.00   2.51703125   0.08695813
659.00   2.51284112   0.08735415
660.00   2.50864473   0.08775137
661.00   2.50444207   0.08814979
662.00   2.50023316   0.08854940
663.00   2.49601798   0.08895022
664.00   2.49179654   0.08935223
665.00   2.48756884   0.08975546
666.00   2.48333489   0.09015989
667.00   2.47909467   0.09056553
668.00   2.47484819   0.09097237
669.00   2.47059546   0.09138043
670.00   2.46633646   0.09178971
671.00   2.46207121   0.09220019
672.00   2.45779971   0.09261190
673.00   2.45352194   0.09302482
674.00   2.44923792   0.09343897
675.00   2.44494765   0.09385433
676.00   2.44065112   0.09427092
677.00   2.43634833   0.09468874
678.00   2.43203929   0.09510778
679.00   2.42772400   0.09552806
680.00   2.42340245   0.09594956
681.00   2.41907465   0.09637230
682.00   2.41474060   0.09679627
683.00   2.41040029   0.09722148
684.00   2.40605374   0.09764792
685.00   2.40170093   0.09807561
686.00   2.39734188   0.09850454
687.00   2.39297657   0.09893471
688.00   2.38860501   0.09936612
689.00   2.38422721   0.09979879
690.00   2.37984315   0.10023270
691.00   2.37545285   0.10066786
692.00   2.37105630   0.10110428
693.00   2.36665350   0.10154194
694.00   2.36224446   0.10198087
695.00   2.35782917   0.10242105
696.00   2.35340763   0.10286249
697.00   2.34897985   0.10330519
698.00   2.34454583   0.10374916
699.00   2.34010556   0.10419439
700.00   2.33565904   0.10464088
701.00   2.33120628   0.10508865
702.00   2.32674728   0.10553768
703.00   2.32228204   0.10598798
704.00   2.31781056   0.10643956
705.00   2.31333283   0.10689241
706.00   2.30884886   0.10734654
707.00   2.30435865   0.10780195
708.00   2.29986221   0.10825864
709.00   2.29535952   0.10871661
710.00   2.29085059   0.10917587
711.00   2.28633543   0.10963641
712.00   2.28181403   0.11009824
713.00   2.27728639   0.11056135
714.00   2.27275251   0.11102576
715.00   2.26821240   0.11149146
716.00   2.26366605   0.11195846
717.00   2.25911346   0.11242675
718.00   2.25455464   0.11289633
719.00   2.24998959   0.11336722
720.00   2.24541830   0.11383941
721.00   2.24084077   0.11431291
722.00   2.23625702   0.11478770
723.00   2.23166703   0.11526381
724.00   2.22707081   0.11574122
725.00   2.22246836   0.11621994
726.00   2.21785967   0.11669998
727.00   2.21324476   0.11718133
728.00   2.20862362   0.11766399
729.00   2.20399624   0.11814797
730.00   2.19936264   0.11863327
731.00   2.19472281   0.11911989
732.00   2.19007675   0.11960784
733.00   2.18542446   0.12009710
734.00   2.18076595   0.12058770
735.00   2.17610121   0.12107962
736.00   2.17143024   0.12157287
737.00   2.16675305   0.12206745
738.00   2.16206963   0.12256336
739.00   2.15737998   0.12306061
740.00   2.15268412   0.12355920
741.00   2.14798203   0.12405912
742.00   2.14327371   0.12456038
743.00   2.13855918   0.12506299
744.00   2.13383842   0.12556694
745.00   2.12911144   0.12607223
746.00   2.12437824   0.12657887
747.00   2.11963882   0.12708686
748.00   2.11489318   0.12759620
749.00   2.11014132   0.12810689
750.00   2.10538324   0.12861894
751.00   2.10061894   0.12913234
752.00   2.09584842   0.12964710
753.00   2.09107169   0.13016321
754.00   2.08628874   0.13068069
755.00   2.08149957   0.13119953
756.00   2.07670419   0.13171974
757.00   2.07190259   0.13224131
758.00   2.06709478   0.13276425
759.00   2.06228075   0.13328856
760.00   2.05746051   0.13381424
761.00   2.05263406   0.13434129
762.00   2.04780139   0.13486972
763.00   2.04296251   0.13539953
764.00   2.03811742   0.13593071
765.00   2.03326612   0.13646327
766.00   2.02840860   0.13699722
767.00   2.02354488   0.13753255
768.00   2.01867495   0.13806926
769.00   2.01379880   0.13860736
770.00   2.00891645   0.13914685
771.00   2.00402789   0.13968773
772.00   1.99913313   0.14023000
773.00   1.99423215   0.14077367
774.00   1.98932497   0.14131873
775.00   1.98441159   0.14186519
776.00   1.97949200   0.14241305
777.00   1.97456620   0.14296231
778.00   1.96963420   0.14351297
779.00   1.96469599   0.14406503
780.00   1.95975159   0.14461851
781.00   1.95480098   0.14517339
782.00   1.94984416   0.14572968
783.00   1.94488115   0.14628738
784.00   1.93991193   0.14684649
785.00   1.93493652   0.14740702
786.00   1.92995490   0.14796897
787.00   1.92496708   0.14853233
788.00   1.91997307   0.14909712
789.00   1.91497285   0.14966332
790.00   1.90996644   0.15023095
791.00   1.90495383   0.15080001
792.00   1.89993503   0.15137049
793.00   1.89491002   0.15194240
794.00   1.88987883   0.15251574
795.00   1.88484143   0.15309052
796.00   1.87979785   0.15366672
797.00   1.87474806   0.15424437
798.00   1.86969209   0.15482345
799.00   1.86462992   0.15540397
800.00   1.85956156   0.15598593
801.00   1.85448700   0.15656933
802.00   1.84940626   0.15715418
803.00   1.84431932   0.15774047
804.00   1.83922620   0.15832821
805.00   1.83412688   0.15891740
806.00   1.82902138   0.15950804
807.00   1.82390968   0.16010014
808.00   1.81879180   0.16069369
809.00   1.81366773   0.16128870
810.00   1.80853747   0.16188516
811.00   1.80340103   0.16248308
812.00   1.79825840   0.16308247
813.00   1.79310959   0.16368332
814.00   1.78795459   0.16428564
815.00   1.78279340   0.16488942
816.00   1.77762604   0.16549467
817.00   1.77245248   0.16610139
818.00   1.76727275   0.16670958
819.00   1.76208684   0.16731925
820.00   1.75689474   0.16793039
821.00   1.75169646   0.16854301
822.00   1.74649200   0.16915710
823.00   1.74128137   0.16977268
824.00   1.73606455   0.17038974
825.00   1.73084155   0.17100829
826.00   1.72561238   0.17162832
827.00   1.72037703   0.17224984
828.00   1.71513550   0.17287284
829.00   1.70988779   0.17349734
830.00   1.70463391   0.17412334
831.00   1.69937386   0.17475082
832.00   1.69410763   0.17537980
833.00   1.68883522   0.17601028
834.00   1.68355664   0.17664226
835.00   1.67827189   0.17727575
836.00   1.67298097   0.17791073
837.00   1.66768387   0.17854722
838.00   1.66238060   0.17918521
839.00   1.65707116   0.17982472
840.00   1.65175555   0.18046573
841.00   1.64643378   0.18110826
842.00   1.64110583   0.18175230
843.00   1.63577171   0.18239785
844.00   1.63043143   0.18304492
845.00   1.62508498   0.18369351
846.00   1.61973236   0.18434362
847.00   1.61437358   0.18499526
848.00   1.60900863   0.18564841
849.00   1.60363751   0.18630309
850.00   1.59826023   0.18695930
851.00   1.59287679   0.18761704
852.00   1.58748718   0.18827631
853.00   1.58209142   0.18893711
854.00   1.57668948   0.18959945
855.00   1.57128139   0.19026332
856.00   1.56586714   0.19092872
857.00   1.56044672   0.19159567
858.00   1.55502015   0.19226416
859.00   1.54958742   0.19293419
860.00   1.54414852   0.19360577
861.00   1.53870347   0.19427889
862.00   1.53325227   0.19495356
863.00   1.52779490   0.19562978
864.00   1.52233138   0.19630755
865.00   1.51686171   0.19698687
866.00   1.51138587   0.19766775
867.00   1.50590389   0.19835019
868.00   1.50041575   0.19903418
869.00   1.49492145   0.19971973
870.00   1.48942101   0.20040685
871.00   1.48391441   0.20109552
872.00   1.47840166   0.20178577
873.00   1.47288276   0.20247758
874.00   1.46735771   0.20317095
875.00   1.46182651   0.20386590
876.00   1.45628916   0.20456242
877.00   1.45074566   0.20526051
878.00   1.44519601   0.20596018
879.00   1.43964021   0.20666143
880.00   1.43407827   0.20736425
881.00   1.42851018   0.20806866
882.00   1.42293595   0.20877465
883.00   1.41735557   0.20948222
884.00   1.41176905   0.21019137
885.00   1.40617638   0.21090212
886.00   1.40057757   0.21161445
887.00   1.39497262   0.21232837
888.00   1.38936153   0.21304389
889.00   1.38374429   0.21376100
890.00   1.37812091   0.21447970
891.00   1.37249139   0.21520001
892.00   1.36685574   0.21592191
893.00   1.36121394   0.21664541
894.00   1.35556601   0.21737052
895.00   1.34991193   0.21809723
896.00   1.34425172   0.21882555
897.00   1.33858538   0.21955547
898.00   1.33291290   0.22028700
899.00   1.32723428   0.22102015
900.00   1.32154953   0.22175491
901.00   1.31585864   0.22249128
902.00   1.31016162   0.22322927
903.00   1.30445847   0.22396887
904.00   1.29874918   0.22471010
905.00   1.29303376   0.22545295
906.00   1.28731221   0.22619742
907.00   1.28158453   0.22694352
908.00   1.27585073   0.22769124
909.00   1.27011079   0.22844059
910.00   1.26436472   0.22919157
911.00   1.25861253   0.22994418
912.00   1.25285420   0.23069843
913.00   1.24708975   0.23145431
914.00   1.24131918   0.23221183
915.00   1.23554248   0.23297098
916.00   1.22975965   0.23373178
917.00   1.22397070   0.23449422
918.00   1.21817563   0.23525830
919.00   1.21237443   0.23602402
920.00   1.20656711   0.23679140
921.00   1.20075367   0.23756042
922.00   1.19493410   0.23833109
923.00   1.18910842   0.23910342
924.00   1.18327662   0.23987740
925.00   1.17743869   0.24065303
926.00   1.17159465   0.24143032
927.00   1.16574449   0.24220927
928.00   1.15988822   0.24298988
929.00   1.15402582   0.24377216
930.00   1.14815731   0.24455609
931.00   1.14228268   0.24534169
932.00   1.13640194   0.24612896
933.00   1.13051509   0.24691790
934.00   1.12462212   0.24770851
935.00   1.11872304   0.24850080
936.00   1.11281784   0.24929475
937.00   1.10690653   0.25009038
938.00   1.10098912   0.25088769
939.00   1.09506559   0.25168668
940.00   1.08913595   0.25248735
941.00   1.08320020   0.25328970
942.00   1.07725835   0.25409374
943.00   1.07131038   0.25489946
944.00   1.06535631   0.25570687
945.00   1.05939613   0.25651597
946.00   1.05342985   0.25732677
947.00   1.04745746   0.25813925
948.00   1.04147896   0.25895343
949.00   1.03549436   0.25976930
950.00   1.02950366   0.26058687
951.00   1.02350685   0.26140615
952.00   1.01750395   0.26222712
953.00   1.01149494   0.26304980
954.00   1.00547983   0.26387418
955.00   0.99945861   0.26470026
956.00   0.99343130   0.26552806
957.00   0.98739789   0.26635756
958.00   0.98135839   0.26718878
959.00   0.97531278   0.26802171
960.00   0.96926108   0.26885635
961.00   0.96320328   0.26969271
962.00   0.95713938   0.27053079
963.00   0.95106939   0.27137059
964.00   0.94499330   0.27221211
965.00   0.93891113   0.27305535
966.00   0.93282285   0.27390032
967.00   0.92672849   0.27474701
968.00   0.92062803   0.27559543
969.00   0.91452148   0.27644559
970.00   0.90840884   0.27729747
971.00   0.90229011   0.27815109
972.00   0.89616530   0.27900644
973.00   0.89003439   0.27986353
974.00   0.88389739   0.28072236
975.00   0.87775431   0.28158293
976.00   0.87160514   0.28244523
977.00   0.86544989   0.28330929
978.00   0.85928855   0.28417508
979.00   0.85312112   0.28504263
980.00   0.84694761   0.28591192
981.00   0.84076802   0.28678297
982.00   0.83458234   0.28765576
983.00   0.82839059   0.28853031
984.00   0.82219275   0.28940661
985.00   0.81598883   0.29028467
986.00   0.80977883   0.29116449
987.00   0.80356275   0.29204607
988.00   0.79734059   0.29292941
989.00   0.79111235   0.29381452
990.00   0.78487804   0.29470139
991.00   0.77863765   0.29559003
992.00   0.77239118   0.29648043
993.00   0.76613864   0.29737261
994.00   0.75988002   0.29826656
995.00   0.75361533   0.29916228
996.00   0.74734456   0.30005978
997.00   0.74106773   0.30095905
998.00   0.73478482   0.30186010
999.00   0.72849584   0.30276294
1000.00   0.72220078   0.30366755
1001.00   0.71589966   0.30457395
1002.00   0.70959247   0.30548213
1003.00   0.70327921   0.30639211
1004.00   0.69695988   0.30730387
1005.00   0.69063449   0.30821742
1006.00   0.68430302   0.30913276
1007.00   0.67796549   0.31004990
1008.00   0.67162190   0.31096883
1009.00   0.66527224   0.31188956
1010.00   0.65891652   0.31281209
1011.00   0.65255473   0.31373642
1012.00   0.64618688   0.31466255
1013.00   0.63981297   0.31559048
1014.00   0.63343300   0.31652022
1015.00   0.62704697   0.31745177
1016.00   0.62065487   0.31838512
1017.00   0.61425672   0.31932029
1018.00   0.60785251   0.32025727
1019.00   0.60144224   0.32119606
1020.00   0.59502591   0.32213667
1021.00   0.58860353   0.32307909
1022.00   0.58217509   0.32402334
1023.00   0.57574060   0.32496940
1024.00   0.56930005   0.32591729
1025.00   0.56285345   0.32686700
1026.00   0.55640079   0.32781854
1027.00   0.54994209   0.32877190
1028.00   0.54347733   0.32972709
1029.00   0.53700652   0.33068412
1030.00   0.53052965   0.33164297
1031.00   0.52404674   0.33260366
1032.00   0.51755778   0.33356618
1033.00   0.51106278   0.33453055
1034.00   0.50456172   0.33549675
1035.00   0.49805462   0.33646479
1036.00   0.49154147   0.33743467
1037.00   0.48502227   0.33840640
1038.00   0.47849703   0.33937997
1039.00   0.47196575   0.34035539
1040.00   0.46542842   0.34133266
1041.00   0.45888505   0.34231178
1042.00   0.45233564   0.34329275
1043.00   0.44578019   0.34427558
1044.00   0.43921870   0.34526026
1045.00   0.43265116   0.34624679
1046.00   0.42607759   0.34723519
1047.00   0.41949798   0.34822545
1048.00   0.41291233   0.34921757
1049.00   0.40632064   0.35021155
1050.00   0.39972292   0.35120740
1051.00   0.39311916   0.35220512
1052.00   0.38650936   0.35320470
1053.00   0.37989353   0.35420616
1054.00   0.37327167   0.35520948
1055.00   0.36664378   0.35621468
1056.00   0.36000985   0.35722176
1057.00   0.35336989   0.35823071
1058.00   0.34672390   0.35924155
1059.00   0.34007188   0.36025426
1060.00   0.33341383   0.36126885
1061.00   0.32674975   0.36228533
1062.00   0.32007965   0.36330370
1063.00   0.31340351   0.36432395
1064.00   0.30672135   0.36534609
1065.00   0.30003317   0.36637012
1066.00   0.29333895   0.36739604
1067.00   0.28663872   0.36842385
1068.00   0.27993246   0.36945356
1069.00   0.27322018   0.37048517
1070.00   0.26650187   0.37151868
1071.00   0.25977754   0.37255408
1072.00   0.25304720   0.37359139
1073.00   0.24631083   0.37463061
1074.00   0.23956844   0.37567172
1075.00   0.23282004   0.37671475
1076.00   0.22606561   0.37775968
1077.00   0.21930517   0.37880652
1078.00   0.21253871   0.37985528
1079.00   0.20576624   0.38090595
1080.00   0.19898775   0.38195853
1081.00   0.19220325   0.38301303
1082.00   0.18541273   0.38406945
1083.00   0.17861620   0.38512779
1084.00   0.17181366   0.38618805
1085.00   0.16500510   0.38725023
1086.00   0.15819054   0.38831434
1087.00   0.15136996   0.38938037
1088.00   0.14454338   0.39044834
1089.00   0.13771078   0.39151823
1090.00   0.13087218   0.39259006
1091.00   0.12402757   0.39366382
1092.00   0.11717696   0.39473951
1093.00   0.11032034   0.39581714
1094.00   0.10345771   0.39689671
1095.00   0.09658908   0.39797822
1096.00   0.08971445   0.39906167
1097.00   0.08283381   0.40014706
1098.00   0.07594717   0.40123440
1099.00   0.06905453   0.40232368
1100.00   0.06215589   0.40341491
1101.00   0.05525125   0.40450810
1102.00   0.04834061   0.40560323
1103.00   0.04142397   0.40670031
1104.00   0.03450133   0.40779936
1105.00   0.02757270   0.40890035
1106.00   0.02063807   0.41000331
1107.00   0.01369745   0.41110822
1108.00   0.00675083   0.41221510
1109.00  -0.00020179   0.41332394
1110.00  -0.00716040   0.41443474
1111.00  -0.01412500   0.41554751
1112.00  -0.02109559   0.41666225
1113.00  -0.02807217   0.41777895
1114.00  -0.03505474   0.41889763
1115.00  -0.04204331   0.42001828
1116.00  -0.04903786   0.42114090
1117.00  -0.05603840   0.42226551
1118.00  -0.06304493   0.42339208
1119.00  -0.07005744   0.42452064
1120.00  -0.07707594   0.42565118
1121.00  -0.08410043   0.42678370
1122.00  -0.09113090   0.42791820
1123.00  -0.09816735   0.42905469
1124.00  -0.10520979   0.43019317
1125.00  -0.11225821   0.43133364
1126.00  -0.11931261   0.43247610
1127.00  -0.12637299   0.43362055
1128.00  -0.13343935   0.43476699
1129.00  -0.14051169   0.43591543
1130.00  -0.14759001   0.43706587
1131.00  -0.15467430   0.43821830
1132.00  -0.16176458   0.43937274
1133.00  -0.16886083   0.44052918
1134.00  -0.17596305   0.44168762
1135.00  -0.18307125   0.44284807
1136.00  -0.19018542   0.44401052
1137.00  -0.19730557   0.44517499
1138.00  -0.20443169   0.44634146
1139.00  -0.21156378   0.44750994
1140.00  -0.21870184   0.44868044
1141.00  -0.22584588   0.44985296
1142.00  -0.23299588   0.45102749
1143.00  -0.24015185   0.45220404
1144.00  -0.24731379   0.45338261
1145.00  -0.25448169   0.45456320
1146.00  -0.26165557   0.45574581
1147.00  -0.26883540   0.45693045
1148.00  -0.27602121   0.45811712
1149.00  -0.28321297   0.45930581
1150.00  -0.29041070   0.46049653
1151.00  -0.29761440   0.46168929
1152.00  -0.30482405   0.46288408
1153.00  -0.31203967   0.46408090
1154.00  -0.31926124   0.46527976
1155.00  -0.32648878   0.46648066
1156.00  -0.33372227   0.46768359
1157.00  -0.34096173   0.46888857
1158.00  -0.34820714   0.47009559
1159.00  -0.35545850   0.47130466
1160.00  -0.36271583   0.47251577
1161.00  -0.36997910   0.47372893
1162.00  -0.37724833   0.47494413
1163.00  -0.38452352   0.47616139
1164.00  -0.39180466   0.47738070
1165.00  -0.39909175   0.47860207
1166.00  -0.40638479   0.47982549
1167.00  -0.41368378   0.48105097
1168.00  -0.42098872   0.48227851
1169.00  -0.42829961   0.48350811
1170.00  -0.43561645   0.48473977
1171.00  -0.44293923   0.48597349
1172.00  -0.45026796   0.48720928
1173.00  -0.45760264   0.48844714
1174.00  -0.46494326   0.48968707
1175.00  -0.47228983   0.49092906
1176.00  -0.47964234   0.49217313
1177.00  -0.48700079   0.49341927
1178.00  -0.49436518   0.49466749
1179.00  -0.50173552   0.49591778
1180.00  -0.50911179   0.49717016
1181.00  -0.51649401   0.49842461
1182.00  -0.52388216   0.49968114
1183.00  -0.53127626   0.50093976
1184.00  -0.53867628   0.50220046
1185.00  -0.54608225   0.50346325
1186.00  -0.55349415   0.50472813
1187.00  -0.56091199   0.50599510
1188.00  -0.56833576   0.50726415
1189.00  -0.57576546   0.50853530
1190.00  -0.58320110   0.50980855
1191.00  -0.59064266   0.51108389
1192.00  -0.59809016   0.51236133
1193.00  -0.60554359   0.51364087
1194.00  -0.61300295   0.51492251
1195.00  -0.62046824   0.51620625
1196.00  -0.62793945   0.51749210
1197.00  -0.63541659   0.51878005
1198.00  -0.64289966   0.52007011
1199.00  -0.65038865   0.52136228
1200.00  -0.65788357   0.52265656
1201.00  -0.66538441   0.52395295
1202.00  -0.67289118   0.52525146
1203.00  -0.68040387   0.52655208
1204.00  -0.68792247   0.52785482
1205.00  -0.69544700   0.52915968
1206.00  -0.70297745   0.53046665
1207.00  -0.71051382   0.53177575
1208.00  -0.71805611   0.53308698
1209.00  -0.72560431   0.53440033
1210.00  -0.73315843   0.53571580
1211.00  -0.74071847   0.53703340
1212.00  -0.74828442   0.53835314
1213.00  -0.75585629   0.53967500
1214.00  -0.76343407   0.54099900
1215.00  -0.77101776   0.54232513
1216.00  -0.77860736   0.54365340
1217.00  -0.78620288   0.54498381
1218.00  -0.79380430   0.54631635
1219.00  -0.80141164   0.54765104
1220.00  -0.80902488   0.54898787
1221.00  -0.81664404   0.55032685
1222.00  -0.82426910   0.55166797
1223.00  -0.83190006   0.55301123
1224.00  -0.83953693   0.55435665
1225.00  -0.84717971   0.55570422
1226.00  -0.85482839   0.55705394
1227.00  -0.86248297   0.55840582
1228.00  -0.87014346   0.55975985
1229.00  -0.87780984   0.56111603
1230.00  -0.88548213   0.56247438
1231.00  -0.89316032   0.56383488
1232.00  -0.90084440   0.56519755
1233.00  -0.90853439   0.56656238
1234.00  -0.91623027   0.56792938
1235.00  -0.92393205   0.56929854
1236.00  -0.93163973   0.57066988
1237.00  -0.93935329   0.57204338
1238.00  -0.94707276   0.57341905
1239.00  -0.95479812   0.57479690
1240.00  -0.96252937   0.57617692
1241.00  -0.97026651   0.57755912
1242.00  -0.97800954   0.57894349
1243.00  -0.98575846   0.58033005
1244.00  -0.99351328   0.58171878
1245.00  -1.00127398   0.58310970
1246.00  -1.00904057   0.58450280
1247.00  -1.01681304   0.58589809
1248.00  -1.02459140   0.58729557
1249.00  -1.03237565   0.58869523
1250.00  -1.04016578   0.59009709
1251.00  -1.04796180   0.59150113
1252.00  -1.05576370   0.59290738
1253.00  -1.06357148   0.59431581
1254.00  -1.07138514   0.59572645
1255.00  -1.07920468   0.59713928
1256.00  -1.08703010   0.59855431
1257.00  -1.09486140   0.59997154
1258.00  -1.10269858   0.60139098
1259.00  -1.11054163   0.60281262
1260.00  -1.11839056   0.60423647
1261.00  -1.12624537   0.60566253
1262.00  -1.13410605   0.60709080
1263.00  -1.14197261   0.60852127
1264.00  -1.14984503   0.60995396
1265.00  -1.15772333   0.61138887
1266.00  -1.16560751   0.61282599
1267.00  -1.17349755   0.61426533
1268.00  -1.18139346   0.61570689
1269.00  -1.18929524   0.61715067
1270.00  -1.19720289   0.61859667
1271.00  -1.20511640   0.62004489
1272.00  -1.21303579   0.62149534
1273.00  -1.22096103   0.62294802
1274.00  -1.22889214   0.62440292
1275.00  -1.23682912   0.62586006
1276.00  -1.24477196   0.62731943
1277.00  -1.25272066   0.62878103
1278.00  -1.26067522   0.63024487
1279.00  -1.26863565   0.63171094
1280.00  -1.27660193   0.63317925
1281.00  -1.28457407   0.63464980
1282.00  -1.29255207   0.63612259
1283.00  -1.30053593   0.63759763
1284.00  -1.30852564   0.63907490
1285.00  -1.31652121   0.64055443
1286.00  -1.32452263   0.64203620
1287.00  -1.33252991   0.64352022
1288.00  -1.34054304   0.64500650
1289.00  -1.34856202   0.64649502
1290.00  -1.35658685   0.64798580
1291.00  -1.36461754   0.64947883
1292.00  -1.37265407   0.65097413
1293.00  -1.38069645   0.65247167
1294.00  -1.38874468   0.65397148
1295.00  -1.39679876   0.65547356
1296.00  -1.40485869   0.65697789
1297.00  -1.41292446   0.65848449
1298.00  -1.42099607   0.65999336
1299.00  -1.42907353   0.66150449
1300.00  -1.43715683   0.66301790
1301.00  -1.44524597   0.66453357
1302.00  -1.45334095   0.66605152
1303.00  -1.46144178   0.66757174
1304.00  -1.46954844   0.66909424
1305.00  -1.47766094   0.67061901
1306.00  -1.48577928   0.67214607
1307.00  -1.49390346   0.67367540
1308.00  -1.50203347   0.67520702
1309.00  -1.51016932   0.67674092
1310.00  -1.51831100   0.67827711
1311.00  -1.52645852   0.67981558
1312.00  -1.53461187   0.68135634
1313.00  -1.54277105   0.68289939
1314.00  -1.55093606   0.68444473
1315.00  -1.55910690   0.68599237
1316.00  -1.56728357   0.68754230
1317.00  -1.57546607   0.68909453
1318.00  -1.58365440   0.69064905
1319.00  -1.59184855   0.69220588
1320.00  -1.60004853   0.69376500
1321.00  -1.60825434   0.69532643
1322.00  -1.61646597   0.69689016
1323.00  -1.62468342   0.69845620
1324.00  -1.63290669   0.70002454
1325.00  -1.64113579   0.70159519
1326.00  -1.64937071   0.70316816
1327.00  -1.65761144   0.70474343
1328.00  -1.66585800   0.70632102
1329.00  -1.67411037   0.70790092
1330.00  -1.68236856   0.70948314
1331.00  -1.69063257   0.71106768
1332.00  -1.69890240   0.71265454
1333.00  -1.70717803   0.71424372
1334.00  -1.71545948   0.71583522
1335.00  -1.72374675   0.71742904
1336.00  -1.73203983   0.71902520
1337.00  -1.74033871   0.72062368
1338.00  -1.74864341   0.72222448
1339.00  -1.75695392   0.72382762
1340.00  -1.76527024   0.72543309
1341.00  -1.77359236   0.72704090
1342.00  -1.78192029   0.72865104
1343.00  -1.79025403   0.73026351
1344.00  -1.79859357   0.73187833
1345.00  -1.80693892   0.73349548
1346.00  -1.81529007   0.73511498
1347.00  -1.82364702   0.73673682
1348.00  -1.83200977   0.73836100
1349.00  -1.84037833   0.73998753
1350.00  -1.84875268   0.74161640
1351.00  -1.85713284   0.74324763
1352.00  -1.86551879   0.74488121
1353.00  -1.87391054   0.74651714
1354.00  -1.88230808   0.74815542
1355.00  -1.89071143   0.74979606
1356.00  -1.89912056   0.75143905
1357.00  -1.90753549   0.75308440
1358.00  -1.91595621   0.75473212
1359.00  -1.92438273   0.75638219
1360.00  -1.93281504   0.75803463
1361.00  -1.94125313   0.75968943
1362.00  -1.94969702   0.76134660
1363.00  -1.95814669   0.76300614
1364.00  -1.96660215   0.76466804
1365.00  -1.97506340   0.76633232
1366.00  -1.98353044   0.76799897
1367.00  -1.99200326   0.76966799
1368.00  -2.00048186   0.77133939
1369.00  -2.00896625   0.77301317
1370.00  -2.01745642   0.77468932
1371.00  -2.02595237   0.77636785
1372.00  -2.03445410   0.77804877
1373.00  -2.04296161   0.77973207
1374.00  -2.05147490   0.78141775
1375.00  -2.05999397   0.78310582
1376.00  -2.06851881   0.78479628
1377.00  -2.07704943   0.78648912
1378.00  -2.08558583   0.78818436
1379.00  -2.09412800   0.78988199
1380.00  -2.10267594   0.79158202
1381.00  -2.11122966   0.79328443
1382.00  -2.11978915   0.79498925
1383.00  -2.12835441   0.79669647
1384.00  -2.13692544   0.79840608
1385.00  -2.14550223   0.80011810
1386.00  -2.15408480   0.80183252
1387.00  -2.16267313   0.80354934
1388.00  -2.17126723   0.80526857
1389.00  -2.17986710   0.80699021
1390.00  -2.18847273   0.80871426
1391.00  -2.19708412   0.81044071
1392.00  -2.20570128   0.81216959
1393.00  -2.21432420   0.81390087
1394.00  -2.22295288   0.81563457
1395.00  -2.23158732   0.81737069
1396.00  -2.24022752   0.81910922
1397.00  -2.24887347   0.82085018
1398.00  -2.25752519   0.82259355
1399.00  -2.26618266   0.82433935
1400.00  -2.27484589   0.82608758
1401.00  -2.28351487   0.82783823
1402.00  -2.29218960   0.82959131
1403.00  -2.30087009   0.83134682
1404.00  -2.30955633   0.83310475
1405.00  -2.31824832   0.83486512
1406.00  -2.32694606   0.83662793
1407.00  -2.33564955   0.83839317
1408.00  -2.34435879   0.84016084
1409.00  -2.35307378   0.84193096
1410.00  -2.36179451   0.84370351
1411.00  -2.37052099   0.84547851
1412.00  -2.37925321   0.84725595
1413.00  -2.38799118   0.84903583
1414.00  -2.39673489   0.85081816
1415.00  -2.40548434   0.85260294
1416.00  -2.41423954   0.85439017
1417.00  -2.42300047   0.85617984
1418.00  -2.43176715   0.85797197
1419.00  -2.44053956   0.85976655
1420.00  -2.44931771   0.86156359
1421.00  -2.45810159   0.86336308
1422.00  -2.46689121   0.86516504
1423.00  -2.47568657   0.86696945
1424.00  -2.48448766   0.86877632
1425.00  -2.49329448   0.87058566
1426.00  -2.50210704   0.87239746
1427.00  -2.51092532   0.87421172
1428.00  -2.51974934   0.87602845
1429.00  -2.52857909   0.87784766
1430.00  -2.53741456   0.87966933
1431.00  -2.54625576   0.88149347
1432.00  -2.55510269   0.88332009
1433.00  -2.56395534   0.88514918
1434.00  -2.57281372   0.88698075
1435.00  -2.58167783   0.88881480
1436.00  -2.59054765   0.89065132
1437.00  -2.59942320   0.89249033
1438.00  -2.60830447   0.89433182
1439.00  -2.61719145   0.89617579
1440.00  -2.62608416   0.89802225
1441.00  -2.63498259   0.89987119
1442.00  -2.64388673   0.90172263
1443.00  -2.65279659   0.90357655
1444.00  -2.66171217   0.90543297
1445.00  -2.67063346   0.90729187
1446.00  -2.67956046   0.90915328
1447.00  -2.68849317   0.91101718
1448.00  -2.69743160   0.91288357
1449.00  -2.70637574   0.91475247
1450.00  -2.71532559   0.91662386
1451.00  -2.72428115   0.91849776
1452.00  -2.73324241   0.92037416
1453.00  -2.74220939   0.92225307
1454.00  -2.75118207   0.92413448
1455.00  -2.76016045   0.92601841
1456.00  -2.76914454   0.92790484
1457.00  -2.77813433   0.92979378
1458.00  -2.78712983   0.93168523
1459.00  -2.79613103   0.93357920
1460.00  -2.80513792   0.93547569
1461.00  -2.81415052   0.93737469
1462.00  -2.82316882   0.93927621
1463.00  -2.83219281   0.94118025
1464.00  -2.84122250   0.94308681
1465.00  -2.85025789   0.94499590
1466.00  -2.85929897   0.94690751
1467.00  -2.86834575   0.94882164
1468.00  -2.87739822   0.95073831
1469.00  -2.88645638   0.95265750
1470.00  -2.89552023   0.95457923
1471.00  -2.90458978   0.95650348
1472.00  -2.91366501   0.95843027
1473.00  -2.92274593   0.96035960
1474.00  -2.93183254   0.96229146
1475.00  -2.94092484   0.96422586
1476.00  -2.95002282   0.96616279
1477.00  -2.95912649   0.96810227
1478.00  -2.96823584   0.97004430
1479.00  -2.97735087   0.97198886
1480.00  -2.98647158   0.97393598
1481.00  -2.99559798   0.97588564
1482.00  -3.00473006   0.97783785
1483.00  -3.01386781   0.97979260
1484.00  -3.02301125   0.98174991
1485.00  -3.03216036   0.98370978
1486.00  -3.04131514   0.98567219
1487.00  -3.05047561   0.98763717
1488.00  -3.05964174   0.98960470
1489.00  -3.06881355   0.99157479
1490.00  -3.07799104   0.99354744
1491.00  -3.08717419   0.99552266
1492.00  -3.09636302   0.99750043
1493.00  -3.10555751   0.99948077
1494.00  -3.11475768   1.00146368
1495.00  -3.12396351   1.00344916
1496.00  -3.13317501   1.00543720
1497.00  -3.14239217   1.00742782
1498.00  -3.15161500   1.00942101
1499.00  -3.16084349   1.01141677
1500.00  -3.17007765   1.01341511
1501.00  -3.17931747   1.01541603
1502.00  -3.18856295   1.01741952
1503.00  -3.19781409   1.01942560
1504.00  -3.20707088   1.02143425
1505.00  -3.21633334   1.02344549
1506.00  -3.22560146   1.02545931
1507.00  -3.23487523   1.02747572
1508.00  -3.24415465   1.02949472
1509.00  -3.25343973   1.03151630
1510.00  -3.26273047   1.03354048
1511.00  -3.27202686   1.03556725
1512.00  -3.28132889   1.03759661
1513.00  -3.29063658   1.03962856
1514.00  -3.29994992   1.04166311
1515.00  -3.30926891   1.04370026
1516.00  -3.31859354   1.04574001
1517.00  -3.32792383   1.04778236
1518.00  -3.33725975   1.04982731
1519.00  -3.34660133   1.05187486
1520.00  -3.35594854   1.05392502
1521.00  -3.36530140   1.05597779
1522.00  -3.37465990   1.05803316
1523.00  -3.38402405   1.06009115
1524.00  -3.39339383   1.06215174
1525.00  -3.40276925   1.06421495
1526.00  -3.41215031   1.06628077
1527.00  -3.42153701   1.06834921
1528.00  -3.43092934   1.07042026
1529.00  -3.44032731   1.07249394
1530.00  -3.44973091   1.07457023
1531.00  -3.45914015   1.07664914
1532.00  -3.46855502   1.07873068
1533.00  -3.47797552   1.08081484
1534.00  -3.48740165   1.08290162
1535.00  -3.49683341   1.08499104
1536.00  -3.50627080   1.08708308
1537.00  -3.51571381   1.08917775
1538.00  -3.52516245   1.09127506
1539.00  -3.53461672   1.09337500
1540.00  -3.54407661   1.09547757
1541.00  -3.55354213   1.09758278
1542.00  -3.56301327   1.09969062
1543.00  -3.57249003   1.10180111
1544.00  -3.58197241   1.10391423
1545.00  -3.59146041   1.10603000
1546.00  -3.60095403   1.10814841
1547.00  -3.61045327   1.11026946
1548.00  -3.61995812   1.11239317
1549.00  -3.62946859   1.11451952
1550.00  -3.63898468   1.11664851
1551.00  -3.64850637   1.11878016
1552.00  -3.65803369   1.12091447
1553.00  -3.66756661   1.12305142
1554.00  -3.67710514   1.12519103
1555.00  -3.68664929   1.12733330
1556.00  -3.69619904   1.12947822
1557.00  -3.70575440   1.13162581
1558.00  -3.71531537   1.13377605
1559.00  -3.72488194   1.13592896
1560.00  -3.73445412   1.13808453
1561.00  -3.74403191   1.14024277
1562.00  -3.75361529   1.14240368
1563.00  -3.76320428   1.14456725
1564.00  -3.77279887   1.14673349
1565.00  -3.78239906   1.14890241
1566.00  -3.79200485   1.15107399
1567.00  -3.80161624   1.15324825
1568.00  -3.81123322   1.15542519
1569.00  -3.82085580   1.15760480
1570.00  -3.83048398   1.15978709
1571.00  -3.84011775   1.16197206
1572.00  -3.84975711   1.16415972
1573.00  -3.85940207   1.16635005
1574.00  -3.86905262   1.16854307
1575.00  -3.87870875   1.17073878
1576.00  -3.88837048   1.17293717
1577.00  -3.89803780   1.17513825
1578.00  -3.90771070   1.17734202
1579.00  -3.91738919   1.17954849
1580.00  -3.92707326   1.18175764
1581.00  -3.93676292   1.18396949
1582.00  -3.94645816   1.18618404
1583.00  -3.95615898   1.18840128
1584.00  -3.96586539   1.19062123
1585.00  -3.97557737   1.19284387
1586.00  -3.98529494   1.19506921
1587.00  -3.99501808   1.19729726
1588.00  -4.00474680   1.19952802
1589.00  -4.01448110   1.20176147
1590.00  -4.02422097   1.20399764
1591.00  -4.03396642   1.20623652
1592.00  -4.04371744   1.20847810
1593.00  -4.05347403   1.21072240
1594.00  -4.06323620   1.21296941
1595.00  -4.07300393   1.21521914
1596.00  -4.08277724   1.21747158
1597.00  -4.09255611   1.21972674
1598.00  -4.10234055   1.22198462
1599.00  -4.11213056   1.22424521
1600.00  -4.12192613   1.22650854
1601.00  -4.13172726   1.22877458
1602.00  -4.14153396   1.23104335
1603.00  -4.15134622   1.23331484
1604.00  -4.16116405   1.23558907
1605.00  -4.17098743   1.23786602
1606.00  -4.18081638   1.24014570
1607.00  -4.19065088   1.24242812
1608.00  -4.20049094   1.24471327
1609.00  -4.21033655   1.24700115
1610.00  -4.22018772   1.24929177
1611.00  -4.23004445   1.25158513
1612.00  -4.23990673   1.25388123
1613.00  -4.24977456   1.25618006
1614.00  -4.25964794   1.25848164
1615.00  -4.26952687   1.26078597
1616.00  -4.27941135   1.26309303
1617.00  -4.28930138   1.26540285
1618.00  -4.29919696   1.26771541
1619.00  -4.30909809   1.27003072
1620.00  -4.31900476   1.27234879
1621.00  -4.32891697   1.27466960
1622.00  -4.33883473   1.27699317
1623.00  -4.34875802   1.27931949
1624.00  -4.35868687   1.28164857
1625.00  -4.36862125   1.28398041
1626.00  -4.37856117   1.28631501
1627.00  -4.38850662   1.28865237
1628.00  -4.39845762   1.29099249
1629.00  -4.40841415   1.29333537
1630.00  -4.41837622   1.29568102
1631.00  -4.42834382   1.29802943
1632.00  -4.43831695   1.30038062
1633.00  -4.44829562   1.30273457
1634.00  -4.45827982   1.30509129
1635.00  -4.46826954   1.30745079
1636.00  -4.47826480   1.30981306
1637.00  -4.48826558   1.31217810
1638.00  -4.49827190   1.31454592
1639.00  -4.50828373   1.31691652
1640.00  -4.51830110   1.31928990
1641.00  -4.52832398   1.32166606
1642.00  -4.53835239   1.32404500
1643.00  -4.54838632   1.32642672
1644.00  -4.55842578   1.32881123
1645.00  -4.56847075   1.33119853
1646.00  -4.57852124   1.33358861
1647.00  -4.58857725   1.33598148
1648.00  -4.59863877   1.33837714
1649.00  -4.60870582   1.34077560
1650.00  -4.61877837   1.34317685
1651.00  -4.62885644   1.34558089
1652.00  -4.63894003   1.34798773
1653.00  -4.64902912   1.35039737
1654.00  -4.65912373   1.35280981
1655.00  -4.66922384   1.35522505
1656.00  -4.67932946   1.35764309
1657.00  -4.68944060   1.36006393
1658.00  -4.69955723   1.36248758
1659.00  -4.70967938   1.36491403
1660.00  -4.71980703   1.36734329
1661.00  -4.72994018   1.36977537
1662.00  -4.74007883   1.37221025
1663.00  -4.75022299   1.37464794
1664.00  -4.76037264   1.37708845
1665.00  -4.77052780   1.37953177
1666.00  -4.78068845   1.38197791
1667.00  -4.79085460   1.38442686
1668.00  -4.80102625   1.38687864
1669.00  -4.81120339   1.38933323
1670.00  -4.82138603   1.39179065
1671.00  -4.83157416   1.39425089
1672.00  -4.84176778   1.39671395
1673.00  -4.85196689   1.39917985
1674.00  -4.86217149   1.40164856
1675.00  -4.87238158   1.40412011
1676.00  -4.88259716   1.40659449
1677.00  -4.89281823   1.40907170
1678.00  -4.90304478   1.41155174
1679.00  -4.91327682   1.41403462
1680.00  -4.92351434   1.41652033
1681.00  -4.93375735   1.41900888
1682.00  -4.94400583   1.42150027
1683.00  -4.95425980   1.42399450
1684.00  -4.96451925   1.42649157
1685.00  -4.97478417   1.42899148
1686.00  -4.98505457   1.43149424
1687.00  -4.99533045   1.43399984
1688.00  -5.00561181   1.43650829
1689.00  -5.01589864   1.43901959
1690.00  -5.02619094   1.44153374
1691.00  -5.03648871   1.44405074
1692.00  -5.04679196   1.44657059
1693.00  -5.05710068   1.44909330
1694.00  -5.06741486   1.45161886
1695.00  -5.07773452   1.45414728
1696.00  -5.08805964   1.45667856
1697.00  -5.09839023   1.45921269
1698.00  -5.10872628   1.46174969
1699.00  -5.11906779   1.46428955
1700.00  -5.12941477   1.46683228
1701.00  -5.13976722   1.46937787
1702.00  -5.15012512   1.47192633
1703.00  -5.16048848   1.47447765
1704.00  -5.17085730   1.47703185
1705.00  -5.18123158   1.47958891
1706.00  -5.19161131   1.48214885
1707.00  -5.20199651   1.48471166
1708.00  -5.21238715   1.48727735
1709.00  -5.22278325   1.48984591
1710.00  -5.23318480   1.49241735
1711.00  -5.24359180   1.49499167
1712.00  -5.25400426   1.49756887
1713.00  -5.26442216   1.50014895
1714.00  -5.27484551   1.50273192
1715.00  -5.28527431   1.50531777
1716.00  -5.29570855   1.50790651
1717.00  -5.30614824   1.51049813
1718.00  -5.31659338   1.51309265
1719.00  -5.32704395   1.51569005
1720.00  -5.33749997   1.51829035
1721.00  -5.34796143   1.52089354
1722.00  -5.35842833   1.52349962
1723.00  -5.36890067   1.52610860
1724.00  -5.37937844   1.52872047
1725.00  -5.38986166   1.53133525
1726.00  -5.40035030   1.53395293
1727.00  -5.41084439   1.53657350
1728.00  -5.42134390   1.53919698
1729.00  -5.43184885   1.54182337
1730.00  -5.44235923   1.54445265
1731.00  -5.45287504   1.54708485
1732.00  -5.46339628   1.54971996
1733.00  -5.47392294   1.55235797
1734.00  -5.48445504   1.55499890
1735.00  -5.49499256   1.55764273
1736.00  -5.50553550   1.56028949
1737.00  -5.51608387   1.56293915
1738.00  -5.52663766   1.56559174
1739.00  -5.53719688   1.56824724
1740.00  -5.54776151   1.57090566
1741.00  -5.55833157   1.57356700
1742.00  -5.56890704   1.57623126
1743.00  -5.57948793   1.57889845
1744.00  -5.59007424   1.58156856
1745.00  -5.60066596   1.58424160
1746.00  -5.61126309   1.58691757
1747.00  -5.62186564   1.58959646
1748.00  -5.63247361   1.59227829
1749.00  -5.64308698   1.59496305
1750.00  -5.65370576   1.59765074
1751.00  -5.66432995   1.60034136
1752.00  -5.67495955   1.60303492
1753.00  -5.68559456   1.60573142
1754.00  -5.69623497   1.60843086
1755.00  -5.70688079   1.61113323
1756.00  -5.71753201   1.61383855
1757.00  -5.72818863   1.61654681
1758.00  -5.73885066   1.61925802
1759.00  -5.74951808   1.62197217
1760.00  -5.76019091   1.62468926
1761.00  -5.77086913   1.62740931
1762.00  -5.78155275   1.63013230
1763.00  -5.79224176   1.63285825
1764.00  -5.80293617   1.63558715
1765.00  -5.81363598   1.63831900
1766.00  -5.82434118   1.64105381
1767.00  -5.83505176   1.64379157
1768.00  -5.84576774   1.64653229
1769.00  -5.85648911   1.64927597
1770.00  -5.86721587   1.65202261
1771.00  -5.87794802   1.65477221
1772.00  -5.88868555   1.65752478
1773.00  -5.89942847   1.66028031
1774.00  -5.91017677   1.66303880
1775.00  -5.92093045   1.66580026
1776.00  -5.93168952   1.66856470
1777.00  -5.94245397   1.67133210
1778.00  -5.95322379   1.67410247
1779.00  -5.96399900   1.67687582
1780.00  -5.97477958   1.67965214
1781.00  -5.98556554   1.68243143
1782.00  -5.99635688   1.68521370
1783.00  -6.00715359   1.68799895
1784.00  -6.01795567   1.69078718
1785.00  -6.02876313   1.69357839
1786.00  -6.03957596   1.69637259
1787.00  -6.05039416   1.69916976
1788.00  -6.06121772   1.70196992
1789.00  -6.07204666   1.70477307
1790.00  -6.08288096   1.70757920
1791.00  -6.09372063   1.71038833
1792.00  -6.10456566   1.71320044
1793.00  -6.11541605   1.71601555
1794.00  -6.12627181   1.71883365
1795.00  -6.13713293   1.72165474
1796.00  -6.14799941   1.72447883
1797.00  -6.15887125   1.72730592
1798.00  -6.16974845   1.73013600
1799.00  -6.18063100   1.73296908
1800.00  -6.19151891   1.73580517
1801.00  -6.20241218   1.73864426
1802.00  -6.21331080   1.74148635
1803.00  -6.22421477   1.74433145
1804.00  -6.23512409   1.74717955
1805.00  -6.24603877   1.75003066
1806.00  -6.25695879   1.75288478
1807.00  -6.26788416   1.75574191
1808.00  -6.27881488   1.75860205
1809.00  -6.28975094   1.76146521
1810.00  -6.30069235   1.76433138
1811.00  -6.31163911   1.76720057
1812.00  -6.32259120   1.77007277
1813.00  -6.33354864   1.77294799
1814.00  -6.34451142   1.77582623
1815.00  -6.35547954   1.77870750
1816.00  -6.36645300   1.78159178
1817.00  -6.37743179   1.78447909
1818.00  -6.38841592   1.78736943
1819.00  -6.39940539   1.79026279
1820.00  -6.41040019   1.79315918
1821.00  -6.42140032   1.79605860
1822.00  -6.43240578   1.79896105
1823.00  -6.44341658   1.80186653
1824.00  -6.45443270   1.80477505
1825.00  -6.46545416   1.80768660
1826.00  -6.47648094   1.81060118
1827.00  -6.48751305   1.81351881
1828.00  -6.49855048   1.81643947
1829.00  -6.50959323   1.81936317
1830.00  -6.52064131   1.82228991
1831.00  -6.53169472   1.82521970
1832.00  -6.54275344   1.82815253
1833.00  -6.55381748   1.83108840
1834.00  -6.56488684   1.83402732
1835.00  -6.57596152   1.83696929
1836.00  -6.58704151   1.83991431
1837.00  -6.59812682   1.84286238
1838.00  -6.60921745   1.84581350
1839.00  -6.62031338   1.84876768
1840.00  -6.63141463   1.85172491
1841.00  -6.64252119   1.85468519
1842.00  -6.65363306   1.85764854
1843.00  -6.66475024   1.86061494
1844.00  -6.67587273   1.86358440
1845.00  -6.68700052   1.86655692
1846.00  -6.69813361   1.86953251
1847.00  -6.70927202   1.87251116
1848.00  -6.72041572   1.87549287
1849.00  -6.73156473   1.87847765
1850.00  -6.74271903   1.88146550
1851.00  -6.75387864   1.88445642
1852.00  -6.76504355   1.88745041
1853.00  -6.77621375   1.89044747
1854.00  -6.78738925   1.89344760
1855.00  -6.79857004   1.89645081
1856.00  -6.80975613   1.89945709
1857.00  -6.82094752   1.90246645
1858.00  -6.83214419   1.90547889
1859.00  -6.84334615   1.90849441
1860.00  -6.85455341   1.91151301
1861.00  -6.86576595   1.91453469
1862.00  -6.87698378   1.91755946
1863.00  -6.88820690   1.92058731
1864.00  -6.89943530   1.92361825
1865.00  -6.91066899   1.92665228
1866.00  -6.92190795   1.92968939
1867.00  -6.93315221   1.93272959
1868.00  -6.94440174   1.93577289
1869.00  -6.95565655   1.93881928
1870.00  -6.96691664   1.94186876
1871.00  -6.97818200   1.94492134
1872.00  -6.98945265   1.94797702
1873.00  -7.00072857   1.95103579
1874.00  -7.01200976   1.95409767
1875.00  -7.02329622   1.95716264
1876.00  -7.03458796   1.96023072
1877.00  -7.04588497   1.96330190
1878.00  -7.05718725   1.96637618
1879.00  -7.06849479   1.96945357
1880.00  -7.07980760   1.97253407
1881.00  -7.09112568   1.97561768
1882.00  -7.10244903   1.97870439
1883.00  -7.11377763   1.98179422
1884.00  -7.12511150   1.98488716
1885.00  -7.13645064   1.98798322
1886.00  -7.14779503   1.99108239
1887.00  -7.15914468   1.99418467
1888.00  -7.17049959   1.99729008
1889.00  -7.18185976   2.00039860
1890.00  -7.19322518   2.00351024
1891.00  -7.20459586   2.00662501
1892.00  -7.21597179   2.00974289
1893.00  -7.22735298   2.01286391
1894.00  -7.23873941   2.01598804
1895.00  -7.25013110   2.01911531
1896.00  -7.26152803   2.02224570
1897.00  -7.27293022   2.02537923
1898.00  -7.28433765   2.02851588
1899.00  -7.29575032   2.03165566
1900.00  -7.30716824   2.03479858
1901.00  -7.31859141   2.03794464
1902.00  -7.33001982   2.04109383
1903.00  -7.34145346   2.04424615
1904.00  -7.35289235   2.04740162
1905.00  -7.36433648   2.05056022
1906.00  -7.37578584   2.05372197
1907.00  -7.38724045   2.05688686
1908.00  -7.39870028   2.06005489
1909.00  -7.41016535   2.06322607
1910.00  -7.42163566   2.06640039
1911.00  -7.43311120   2.06957787
1912.00  -7.44459196   2.07275849
1913.00  -7.45607796   2.07594226
1914.00  -7.46756919   2.07912918
1915.00  -7.47906564   2.08231925
1916.00  -7.49056732   2.08551248
1917.00  -7.50207423   2.08870887
1918.00  -7.51358636   2.09190841
1919.00  -7.52510371   2.09511111
1920.00  -7.53662629   2.09831697
1921.00  -7.54815409   2.10152599
1922.00  -7.55968710   2.10473817
1923.00  -7.57122534   2.10795351
1924.00  -7.58276879   2.11117202
1925.00  -7.59431745   2.11439370
1926.00  -7.60587134   2.11761854
1927.00  -7.61743043   2.12084655
1928.00  -7.62899474   2.12407772
1929.00  -7.64056426   2.12731207
1930.00  -7.65213900   2.13054960
1931.00  -7.66371894   2.13379029
1932.00  -7.67530409   2.13703416
1933.00  -7.68689444   2.14028121
1934.00  -7.69849000   2.14353143
1935.00  -7.71009077   2.14678483
1936.00  -7.72169674   2.15004141
1937.00  -7.73330791   2.15330118
1938.00  -7.74492429   2.15656412
1939.00  -7.75654586   2.15983025
1940.00  -7.76817263   2.16309956
1941.00  -7.77980460   2.16637206
1942.00  -7.79144177   2.16964775
1943.00  -7.80308413   2.17292663
1944.00  -7.81473169   2.17620869
1945.00  -7.82638444   2.17949395
1946.00  -7.83804239   2.18278240
1947.00  -7.84970552   2.18607404
1948.00  -7.86137384   2.18936888
1949.00  -7.87304735   2.19266692
1950.00  -7.88472605   2.19596815
1951.00  -7.89640994   2.19927258
1952.00  -7.90809901   2.20258021
1953.00  -7.91979327   2.20589105
1954.00  -7.93149270   2.20920508
1955.00  -7.94319732   2.21252232
1956.00  -7.95490712   2.21584277
1957.00  -7.96662210   2.21916642
1958.00  -7.97834226   2.22249328
1959.00  -7.99006759   2.22582335
1960.00  -8.00179811   2.22915663
1961.00  -8.01353379   2.23249312
1962.00  -8.02527465   2.23583282
1963.00  -8.03702068   2.23917574
1964.00  -8.04877188   2.24252187
1965.00  -8.06052826   2.24587122
1966.00  -8.07228980   2.24922379
1967.00  -8.08405651   2.25257958
1968.00  -8.09582838   2.25593858
1969.00  -8.10760543   2.25930081
1970.00  -8.11938763   2.26266626
1971.00  -8.13117500   2.26603494
1972.00  -8.14296753   2.26940684
1973.00  -8.15476523   2.27278197
1974.00  -8.16656808   2.27616033
1975.00  -8.17837609   2.27954191
1976.00  -8.19018925   2.28292673
1977.00  -8.20200758   2.28631478
1978.00  -8.21383106   2.28970606
1979.00  -8.22565969   2.29310058
1980.00  -8.23749348   2.29649833
1981.00  -8.24933241   2.29989932
1982.00  -8.26117650   2.30330354
1983.00  -8.27302574   2.30671101
1984.00  -8.28488012   2.31012171
1985.00  -8.29673965   2.31353566
1986.00  -8.30860433   2.31695285
1987.00  -8.32047415   2.32037329
1988.00  -8.33234911   2.32379697
1989.00  -8.34422922   2.32722390
1990.00  -8.35611447   2.33065408
1991.00  -8.36800486   2.33408750
1992.00  -8.37990038   2.33752418
1993.00  -8.39180105   2.34096411
1994.00  -8.40370685   2.34440729
1995.00  -8.41561778   2.34785372
1996.00  -8.42753385   2.35130341
1997.00  -8.43945506   2.35475636
1998.00  -8.45138139   2.35821257
1999.00  -8.46331285   2.36167204
2000.00  -8.47524945   2.36513476
