wavelength(nm)         real         imag
200.00   3.69249085   0.00396588
201.00   3.69041134   0.00402565
202.00   3.68832147   0.00408602
203.00   3.68622125   0.00414699
204.00   3.68411067   0.00420856
205.00   3.68198973   0.00427074
206.00   3.67985844   0.00433352
207.00   3.67771680   0.00439692
208.00   3.67556479   0.00446094
209.00   3.67340244   0.00452557
210.00   3.67122973   0.00459083
211.00   3.66904666   0.00465670
212.00   3.66685325   0.00472321
213.00   3.66464947   0.00479034
214.00   3.66243535   0.00485811
215.00   3.66021087   0.00492652
216.00   3.65797604   0.00499556
217.00   3.65573085   0.00506524
218.00   3.65347532   0.00513557
219.00   3.65120943   0.00520655
220.00   3.64893318   0.00527818
221.00   3.64664659   0.00535046
222.00   3.64434965   0.00542340
223.00   3.64204235   0.00549699
224.00   3.63972470   0.00557125
225.00   3.63739671   0.00564618
226.00   3.63505836   0.00572177
227.00   3.63270966   0.00579804
228.00   3.63035061   0.00587498
229.00   3.62798121   0.00595259
230.00   3.62560147   0.00603089
231.00   3.62321137   0.00610987
232.00   3.62081092   0.00618954
233.00   3.61840013   0.00626990
234.00   3.61597899   0.00635094
235.00   3.61354750   0.00643269
236.00   3.61110566   0.00651513
237.00   3.60865347   0.00659827
238.00   3.60619094   0.00668212
239.00   3.60371806   0.00676667
240.00   3.60123483   0.00685193
241.00   3.59874125   0.00693791
242.00   3.59623733   0.00702460
243.00   3.59372307   0.00711201
244.00   3.59119846   0.00720014
245.00   3.58866350   0.00728900
246.00   3.58611820   0.00737859
247.00   3.58356255   0.00746890
248.00   3.58099656   0.00755995
249.00   3.57842022   0.00765174
250.00   3.57583354   0.00774426
251.00   3.57323651   0.00783753
252.00   3.57062915   0.00793154
253.00   3.56801144   0.00802630
254.00   3.56538338   0.00812182
255.00   3.56274499   0.00821808
256.00   3.56009625   0.00831511
257.00   3.55743717   0.00841289
258.00   3.55476774   0.00851144
259.00   3.55208798   0.00861075
260.00   3.54939787   0.00871084
261.00   3.54669743   0.00881169
262.00   3.54398664   0.00891332
263.00   3.54126551   0.00901573
264.00   3.53853405   0.00911892
265.00   3.53579224   0.00922289
266.00   3.53304009   0.00932765
267.00   3.53027761   0.00943320
268.00   3.52750479   0.00953954
269.00   3.52472162   0.00964668
270.00   3.52192812   0.00975461
271.00   3.51912429   0.00986335
272.00   3.51631011   0.00997289
273.00   3.51348560   0.01008324
274.00   3.51065075   0.01019440
275.00   3.50780556   0.01030638
276.00   3.50495004   0.01041917
277.00   3.50208418   0.01053278
278.00   3.49920798   0.01064721
279.00   3.49632145   0.01076247
280.00   3.49342459   0.01087855
281.00   3.49051739   0.01099547
282.00   3.48759985   0.01111322
283.00   3.48467199   0.01123181
284.00   3.48173378   0.01135123
285.00   3.47878525   0.01147150
286.00   3.47582638   0.01159262
287.00   3.47285718   0.01171459
288.00   3.46987764   0.01183740
289.00   3.46688778   0.01196108
290.00   3.46388758   0.01208560
291.00   3.46087705   0.01221100
292.00   3.45785619   0.01233725
293.00   3.45482500   0.01246437
294.00   3.45178348   0.01259236
295.00   3.44873162   0.01272122
296.00   3.44566944   0.01285096
297.00   3.44259693   0.01298158
298.00   3.43951409   0.01311308
299.00   3.43642092   0.01324546
300.00   3.43331742   0.01337873
301.00   3.43020359   0.01351289
302.00   3.42707944   0.01364794
303.00   3.42394496   0.01378389
304.00   3.42080015   0.01392074
305.00   3.41764501   0.01405849
306.00   3.41447955   0.01419714
307.00   3.41130376   0.01433670
308.00   3.40811765   0.01447718
309.00   3.40492121   0.01461856
310.00   3.40171445   0.01476087
311.00   3.39849736   0.01490409
312.00   3.39526994   0.01504824
313.00   3.39203220   0.01519331
314.00   3.38878414   0.01533931
315.00   3.38552576   0.01548624
316.00   3.38225705   0.01563411
317.00   3.37897802   0.01578292
318.00   3.37568867   0.01593266
319.00   3.37238900   0.01608335
320.00   3.36907900   0.01623498
321.00   3.36575868   0.01638757
322.00   3.36242804   0.01654110
323.00   3.35908709   0.01669559
324.00   3.35573581   0.01685104
325.00   3.35237421   0.01700745
326.00   3.34900229   0.01716482
327.00   3.34562006   0.01732316
328.00   3.34222750   0.01748247
329.00   3.33882463   0.01764276
330.00   3.33541144   0.01780401
331.00   3.33198793   0.01796625
332.00   3.32855411   0.01812947
333.00   3.32510996   0.01829367
334.00   3.32165551   0.01845887
335.00   3.31819073   0.01862505
336.00   3.31471564   0.01879222
337.00   3.31123024   0.01896039
338.00   3.30773452   0.01912956
339.00   3.30422848   0.01929974
340.00   3.30071213   0.01947091
341.00   3.29718547   0.01964310
342.00   3.29364849   0.01981630
343.00   3.29010121   0.01999051
344.00   3.28654361   0.02016574
345.00   3.28297569   0.02034198
346.00   3.27939747   0.02051925
347.00   3.27580893   0.02069755
348.00   3.27221008   0.02087688
349.00   3.26860093   0.02105723
350.00   3.26498146   0.02123862
351.00   3.26135168   0.02142105
352.00   3.25771159   0.02160452
353.00   3.25406120   0.02178904
354.00   3.25040049   0.02197460
355.00   3.24672948   0.02216120
356.00   3.24304816   0.02234886
357.00   3.23935653   0.02253758
358.00   3.23565460   0.02272735
359.00   3.23194236   0.02291819
360.00   3.22821981   0.02311009
361.00   3.22448695   0.02330306
362.00   3.22074380   0.02349709
363.00   3.21699033   0.02369220
364.00   3.21322656   0.02388839
365.00   3.20945249   0.02408565
366.00   3.20566812   0.02428399
367.00   3.20187344   0.02448342
368.00   3.19806845   0.02468394
369.00   3.19425317   0.02488555
370.00   3.19042758   0.02508825
371.00   3.18659169   0.02529205
372.00   3.18274550   0.02549695
373.00   3.17888901   0.02570294
374.00   3.17502222   0.02591005
375.00   3.17114513   0.02611826
376.00   3.16725774   0.02632758
377.00   3.16336005   0.02653802
378.00   3.15945206   0.02674958
379.00   3.15553378   0.02696225
380.00   3.15160519   0.02717605
381.00   3.14766631   0.02739097
382.00   3.14371713   0.02760702
383.00   3.13975766   0.02782420
384.00   3.13578789   0.02804252
385.00   3.13180782   0.02826198
386.00   3.12781746   0.02848257
387.00   3.12381680   0.02870431
388.00   3.11980585   0.02892720
389.00   3.11578460   0.02915123
390.00   3.11175306   0.02937642
391.00   3.10771123   0.02960276
392.00   3.10365911   0.02983026
393.00   3.09959669   0.03005892
394.00   3.09552398   0.03028874
395.00   3.09144098   0.03051973
396.00   3.08734769   0.03075190
397.00   3.08324411   0.03098523
398.00   3.07913024   0.03121974
399.00   3.07500608   0.03145543
400.00   3.07087163   0.03169230
401.00   3.06672689   0.03193035
402.00   3.06257187   0.03216959
403.00   3.05840655   0.03241002
404.00   3.05423095   0.03265165
405.00   3.05004506   0.03289447
406.00   3.04584889   0.03313849
407.00   3.04164243   0.03338371
408.00   3.03742569   0.03363014
409.00   3.03319865   0.03387777
410.00   3.02896134   0.03412662
411.00   3.02471374   0.03437667
412.00   3.02045586   0.03462795
413.00   3.01618769   0.03488045
414.00   3.01190925   0.03513416
415.00   3.00762052   0.03538911
416.00   3.00332150   0.03564528
417.00   2.99901221   0.03590268
418.00   2.99469264   0.03616132
419.00   2.99036278   0.03642119
420.00   2.98602265   0.03668231
421.00   2.98167223   0.03694467
422.00   2.97731154   0.03720827
423.00   2.97294057   0.03747312
424.00   2.96855932   0.03773923
425.00   2.96416780   0.03800659
426.00   2.95976599   0.03827520
427.00   2.95535392   0.03854508
428.00   2.95093156   0.03881622
429.00   2.94649893   0.03908863
430.00   2.94205602   0.03936230
431.00   2.93760284   0.03963725
432.00   2.93313939   0.03991348
433.00   2.92866566   0.04019098
434.00   2.92418166   0.04046976
435.00   2.91968739   0.04074983
436.00   2.91518284   0.04103118
437.00   2.91066802   0.04131383
438.00   2.90614293   0.04159776
439.00   2.90160758   0.04188300
440.00   2.89706195   0.04216953
441.00   2.89250605   0.04245736
442.00   2.88793988   0.04274650
443.00   2.88336344   0.04303694
444.00   2.87877674   0.04332869
445.00   2.87417976   0.04362176
446.00   2.86957252   0.04391615
447.00   2.86495502   0.04421185
448.00   2.86032725   0.04450887
449.00   2.85568921   0.04480722
450.00   2.85104091   0.04510690
451.00   2.84638234   0.04540791
452.00   2.84171351   0.04571025
453.00   2.83703441   0.04601393
454.00   2.83234505   0.04631895
455.00   2.82764543   0.04662531
456.00   2.82293555   0.04693302
457.00   2.81821540   0.04724207
458.00   2.81348500   0.04755248
459.00   2.80874433   0.04786424
460.00   2.80399340   0.04817735
461.00   2.79923222   0.04849183
462.00   2.79446077   0.04880767
463.00   2.78967907   0.04912487
464.00   2.78488711   0.04944345
465.00   2.78008489   0.04976339
466.00   2.77527241   0.05008471
467.00   2.77044968   0.05040741
468.00   2.76561669   0.05073149
469.00   2.76077345   0.05105695
470.00   2.75591995   0.05138380
471.00   2.75105620   0.05171203
472.00   2.74618219   0.05204166
473.00   2.74129794   0.05237269
474.00   2.73640342   0.05270511
475.00   2.73149866   0.05303893
476.00   2.72658364   0.05337416
477.00   2.72165838   0.05371079
478.00   2.71672286   0.05404883
479.00   2.71177709   0.05438829
480.00   2.70682108   0.05472916
481.00   2.70185481   0.05507144
482.00   2.69687830   0.05541515
483.00   2.69189154   0.05576029
484.00   2.68689453   0.05610685
485.00   2.68188727   0.05645484
486.00   2.67686977   0.05680426
487.00   2.67184202   0.05715512
488.00   2.66680403   0.05750742
489.00   2.66175579   0.05786115
490.00   2.65669731   0.05821634
491.00   2.65162859   0.05857297
492.00   2.64654962   0.05893105
493.00   2.64146041   0.05929058
494.00   2.63636096   0.05965158
495.00   2.63125126   0.06001403
496.00   2.62613133   0.06037794
497.00   2.62100116   0.06074331
498.00   2.61586074   0.06111016
499.00   2.61071009   0.06147847
500.00   2.60554920   0.06184826
501.00   2.60037807   0.06221952
502.00   2.59519671   0.06259227
503.00   2.59000510   0.06296650
504.00   2.58480326   0.06334221
505.00   2.57959119   0.06371941
506.00   2.57436888   0.06409810
507.00   2.56913634   0.06447828
508.00   2.56389356   0.06485996
509.00   2.55864055   0.06524315
510.00   2.55337730   0.06562783
511.00   2.54810383   0.06601402
512.00   2.54282012   0.06640172
513.00   2.53752618   0.06679093
514.00   2.53222201   0.06718165
515.00   2.52690761   0.06757389
516.00   2.52158298   0.06796765
517.00   2.51624812   0.06836293
518.00   2.51090304   0.06875974
519.00   2.50554772   0.06915808
520.00   2.50018218   0.06955795
521.00   2.49480642   0.06995936
522.00   2.48942043   0.07036230
523.00   2.48402421   0.07076678
524.00   2.47861776   0.07117281
525.00   2.47320110   0.07158038
526.00   2.46777421   0.07198950
527.00   2.46233710   0.07240018
528.00   2.45688976   0.07281240
529.00   2.45143220   0.07322619
530.00   2.44596442   0.07364154
531.00   2.44048643   0.07405845
532.00   2.43499821   0.07447692
533.00   2.42949977   0.07489697
534.00   2.42399111   0.07531859
535.00   2.41847224   0.07574178
536.00   2.41294315   0.07616655
537.00   2.40740384   0.07659290
538.00   2.40185431   0.07702084
539.00   2.39629457   0.07745036
540.00   2.39072461   0.07788148
541.00   2.38514444   0.07831418
542.00   2.37955406   0.07874848
543.00   2.37395346   0.07918438
544.00   2.36834265   0.07962188
545.00   2.36272163   0.08006099
546.00   2.35709039   0.08050170
547.00   2.35144895   0.08094402
548.00   2.34579729   0.08138796
549.00   2.34013542   0.08183351
550.00   2.33446335   0.08228068
551.00   2.32878107   0.08272947
552.00   2.32308858   0.08317988
553.00   2.31738588   0.08363193
554.00   2.31167298   0.08408560
555.00   2.30594987   0.08454091
556.00   2.30021655   0.08499785
557.00   2.29447303   0.08545643
558.00   2.28871931   0.08591665
559.00   2.28295538   0.08637852
560.00   2.27718125   0.08684203
561.00   2.27139692   0.08730720
562.00   2.26560238   0.08777402
563.00   2.25979765   0.08824249
564.00   2.25398271   0.08871263
565.00   2.24815758   0.08918442
566.00   2.24232224   0.08965788
567.00   2.23647671   0.09013301
568.00   2.23062098   0.09060981
569.00   2.22475505   0.09108828
570.00   2.21887893   0.09156843
571.00   2.21299261   0.09205026
572.00   2.20709609   0.09253377
573.00   2.20118938   0.09301897
574.00   2.19527248   0.09350585
575.00   2.18934538   0.09399443
576.00   2.18340810   0.09448470
577.00   2.17746061   0.09497666
578.00   2.17150294   0.09547033
579.00   2.16553508   0.09596570
580.00   2.15955703   0.09646277
581.00   2.15356878   0.09696155
582.00   2.14757035   0.09746204
583.00   2.14156173   0.09796425
584.00   2.13554292   0.09846817
585.00   2.12951393   0.09897382
586.00   2.12347475   0.09948118
587.00   2.11742538   0.09999027
588.00   2.11136583   0.10050109
589.00   2.10529610   0.10101364
590.00   2.09921618   0.10152793
591.00   2.09312608   0.10204395
592.00   2.08702580   0.10256171
593.00   2.08091533   0.10308122
594.00   2.07479469   0.10360247
595.00   2.06866386   0.10412547
596.00   2.06252286   0.10465022
597.00   2.05637167   0.10517672
598.00   2.05021031   0.10570499
599.00   2.04403877   0.10623501
600.00   2.03785705   0.10676679
601.00   2.03166516   0.10730034
602.00   2.02546309   0.10783566
603.00   2.01925085   0.10837276
604.00   2.01302843   0.10891162
605.00   2.00679584   0.10945227
606.00   2.00055308   0.10999469
607.00   1.99430014   0.11053890
608.00   1.98803703   0.11108489
609.00   1.98176376   0.11163267
610.00   1.97548031   0.11218225
611.00   1.96918669   0.11273361
612.00   1.96288290   0.11328678
613.00   1.95656895   0.11384175
614.00   1.95024483   0.11439851
615.00   1.94391054   0.11495709
616.00   1.93756608   0.11551747
617.00   1.93121146   0.11607967
618.00   1.92484668   0.11664368
619.00   1.91847173   0.11720951
620.00   1.91208662   0.11777716
621.00   1.90569134   0.11834663
622.00   1.89928591   0.11891793
623.00   1.89287031   0.11949106
624.00   1.88644455   0.12006602
625.00   1.88000863   0.12064282
626.00   1.87356256   0.12122145
627.00   1.86710632   0.12180192
628.00   1.86063993   0.12238424
629.00   1.85416338   0.12296840
630.00   1.84767667   0.12355441
631.00   1.84117981   0.12414228
632.00   1.83467280   0.12473200
633.00   1.82815563   0.12532357
634.00   1.82162830   0.12591701
635.00   1.81509082   0.12651231
636.00   1.80854320   0.12710948
637.00   1.80198542   0.12770852
638.00   1.79541748   0.12830943
639.00   1.78883940   0.12891221
640.00   1.78225117   0.12951688
641.00   1.77565280   0.13012342
642.00   1.76904427   0.13073184
643.00   1.76242560   0.13134216
644.00   1.75579678   0.13195436
645.00   1.74915781   0.13256846
646.00   1.74250870   0.13318444
647.00   1.73584945   0.13380233
648.00   1.72918005   0.13442212
649.00   1.72250051   0.13504381
650.00   1.71581083   0.13566741
651.00   1.70911100   0.13629292
652.00   1.70240104   0.13692034
653.00   1.69568093   0.13754968
654.00   1.68895069   0.13818093
655.00   1.68221031   0.13881410
656.00   1.67545979   0.13944920
657.00   1.66869913   0.14008623
658.00   1.66192834   0.14072518
659.00   1.65514741   0.14136607
660.00   1.64835635   0.14200889
661.00   1.64155515   0.14265365
662.00   1.63474382   0.14330035
663.00   1.62792236   0.14394899
664.00   1.62109077   0.14459958
665.00   1.61424904   0.14525212
666.00   1.60739719   0.14590662
667.00   1.60053520   0.14656306
668.00   1.59366309   0.14722147
669.00   1.58678085   0.14788184
670.00   1.57988848   0.14854417
671.00   1.57298598   0.14920846
672.00   1.56607336   0.14987473
673.00   1.55915062   0.15054297
674.00   1.55221774   0.15121318
675.00   1.54527475   0.15188537
676.00   1.53832163   0.15255954
677.00   1.53135839   0.15323570
678.00   1.52438503   0.15391384
679.00   1.51740155   0.15459397
680.00   1.51040795   0.15527610
681.00   1.50340423   0.15596022
682.00   1.49639039   0.15664634
683.00   1.48936644   0.15733445
684.00   1.48233236   0.15802458
685.00   1.47528818   0.15871670
686.00   1.46823387   0.15941084
687.00   1.46116945   0.16010699
688.00   1.45409492   0.16080516
689.00   1.44701028   0.16150534
690.00   1.43991552   0.16220754
691.00   1.43281065   0.16291177
692.00   1.42569567   0.16361802
693.00   1.41857058   0.16432631
694.00   1.41143538   0.16503662
695.00   1.40429008   0.16574897
696.00   1.39713466   0.16646336
697.00   1.38996914   0.16717979
698.00   1.38279351   0.16789826
699.00   1.37560778   0.16861878
700.00   1.36841195   0.16934135
701.00   1.36120601   0.17006597
702.00   1.35398996   0.17079264
703.00   1.34676382   0.17152137
704.00   1.33952757   0.17225217
705.00   1.33228122   0.17298502
706.00   1.32502478   0.17371995
707.00   1.31775823   0.17445694
708.00   1.31048158   0.17519600
709.00   1.30319484   0.17593714
710.00   1.29589800   0.17668036
711.00   1.28859107   0.17742566
712.00   1.28127404   0.17817304
713.00   1.27394692   0.17892250
714.00   1.26660970   0.17967406
715.00   1.25926239   0.18042771
716.00   1.25190499   0.18118345
717.00   1.24453750   0.18194129
718.00   1.23715991   0.18270123
719.00   1.22977224   0.18346327
720.00   1.22237448   0.18422742
721.00   1.21496663   0.18499368
722.00   1.20754869   0.18576205
723.00   1.20012067   0.18653253
724.00   1.19268256   0.18730513
725.00   1.18523437   0.18807986
726.00   1.17777609   0.18885670
727.00   1.17030773   0.18963567
728.00   1.16282929   0.19041677
729.00   1.15534077   0.19120000
730.00   1.14784216   0.19198537
731.00   1.14033348   0.19277287
732.00   1.13281472   0.19356251
733.00   1.12528588   0.19435430
734.00   1.11774696   0.19514823
735.00   1.11019796   0.19594431
736.00   1.10263889   0.19674254
737.00   1.09506974   0.19754293
738.00   1.08749052   0.19834547
739.00   1.07990123   0.19915017
740.00   1.07230186   0.19995704
741.00   1.06469243   0.20076607
742.00   1.05707292   0.20157727
743.00   1.04944334   0.20239064
744.00   1.04180369   0.20320619
745.00   1.03415397   0.20402391
746.00   1.02649419   0.20484381
747.00   1.01882434   0.20566589
748.00   1.01114442   0.20649016
749.00   1.00345444   0.20731662
750.00   0.99575440   0.20814527
751.00   0.98804429   0.20897611
752.00   0.98032411   0.20980915
753.00   0.97259388   0.21064438
754.00   0.96485359   0.21148183
755.00   0.95710323   0.21232147
756.00   0.94934282   0.21316332
757.00   0.94157234   0.21400739
758.00   0.93379181   0.21485367
759.00   0.92600123   0.21570216
760.00   0.91820058   0.21655287
761.00   0.91038989   0.21740581
762.00   0.90256913   0.21826097
763.00   0.89473833   0.21911836
764.00   0.88689747   0.21997798
765.00   0.87904656   0.22083983
766.00   0.87118560   0.22170392
767.00   0.86331459   0.22257024
768.00   0.85543353   0.22343881
769.00   0.84754242   0.22430963
770.00   0.83964127   0.22518269
771.00   0.83173006   0.22605800
772.00   0.82380882   0.22693556
773.00   0.81587752   0.22781538
774.00   0.80793619   0.22869746
775.00   0.79998481   0.22958180
776.00   0.79202338   0.23046841
777.00   0.78405192   0.23135728
778.00   0.77607042   0.23224842
779.00   0.76807887   0.23314183
780.00   0.76007729   0.23403752
781.00   0.75206567   0.23493549
782.00   0.74404401   0.23583574
783.00   0.73601231   0.23673828
784.00   0.72797058   0.23764310
785.00   0.71991882   0.23855021
786.00   0.71185702   0.23945961
787.00   0.70378519   0.24037131
788.00   0.69570333   0.24128530
789.00   0.68761143   0.24220160
790.00   0.67950951   0.24312020
791.00   0.67139756   0.24404111
792.00   0.66327557   0.24496432
793.00   0.65514356   0.24588985
794.00   0.64700153   0.24681770
795.00   0.63884947   0.24774786
796.00   0.63068738   0.24868034
797.00   0.62251527   0.24961515
798.00   0.61433313   0.25055228
799.00   0.60614098   0.25149174
800.00   0.59793880   0.25243353
801.00   0.58972660   0.25337766
802.00   0.58150438   0.25432412
803.00   0.57327214   0.25527292
804.00   0.56502989   0.25622407
805.00   0.55677762   0.25717757
806.00   0.54851533   0.25813341
807.00   0.54024302   0.25909160
808.00   0.53196071   0.26005215
809.00   0.52366837   0.26101505
810.00   0.51536603   0.26198032
811.00   0.50705367   0.26294794
812.00   0.49873131   0.26391794
813.00   0.49039893   0.26489030
814.00   0.48205655   0.26586503
815.00   0.47370415   0.26684213
816.00   0.46534175   0.26782161
817.00   0.45696935   0.26880348
818.00   0.44858693   0.26978772
819.00   0.44019452   0.27077435
820.00   0.43179210   0.27176336
821.00   0.42337967   0.27275477
822.00   0.41495725   0.27374857
823.00   0.40652482   0.27474477
824.00   0.39808240   0.27574336
825.00   0.38962997   0.27674436
826.00   0.38116755   0.27774776
827.00   0.37269513   0.27875357
828.00   0.36421272   0.27976179
829.00   0.35572030   0.28077242
830.00   0.34721790   0.28178547
831.00   0.33870550   0.28280094
832.00   0.33018311   0.28381883
833.00   0.32165072   0.28483914
834.00   0.31310835   0.28586188
835.00   0.30455598   0.28688705
836.00   0.29599363   0.28791465
837.00   0.28742129   0.28894469
838.00   0.27883896   0.28997716
839.00   0.27024664   0.29101208
840.00   0.26164434   0.29204943
841.00   0.25303206   0.29308924
842.00   0.24440979   0.29413150
843.00   0.23577754   0.29517620
844.00   0.22713530   0.29622336
845.00   0.21848309   0.29727298
846.00   0.20982090   0.29832506
847.00   0.20114873   0.29937961
848.00   0.19246658   0.30043662
849.00   0.18377445   0.30149609
850.00   0.17507235   0.30255804
851.00   0.16636027   0.30362247
852.00   0.15763822   0.30468937
853.00   0.14890619   0.30575875
854.00   0.14016419   0.30683061
855.00   0.13141223   0.30790496
856.00   0.12265029   0.30898180
857.00   0.11387838   0.31006112
858.00   0.10509650   0.31114295
859.00   0.09630466   0.31222726
860.00   0.08750285   0.31331408
861.00   0.07869107   0.31440340
862.00   0.06986933   0.31549523
863.00   0.06103762   0.31658956
864.00   0.05219595   0.31768640
865.00   0.04334432   0.31878576
866.00   0.03448273   0.31988763
867.00   0.02561118   0.32099202
868.00   0.01672967   0.32209893
869.00   0.00783820   0.32320837
870.00  -0.00106322   0.32432033
871.00  -0.00997460   0.32543482
872.00  -0.01889594   0.32655185
873.00  -0.02782723   0.32767141
874.00  -0.03676847   0.32879351
875.00  -0.04571967   0.32991815
876.00  -0.05468082   0.33104534
877.00  -0.06365192   0.33217507
878.00  -0.07263296   0.33330735
879.00  -0.08162396   0.33444218
880.00  -0.09062490   0.33557957
881.00  -0.09963579   0.33671952
882.00  -0.10865663   0.33786202
883.00  -0.11768741   0.33900709
884.00  -0.12672813   0.34015472
885.00  -0.13577880   0.34130493
886.00  -0.14483941   0.34245770
887.00  -0.15390996   0.34361305
888.00  -0.16299045   0.34477098
889.00  -0.17208087   0.34593148
890.00  -0.18118124   0.34709457
891.00  -0.19029154   0.34826025
892.00  -0.19941178   0.34942851
893.00  -0.20854195   0.35059936
894.00  -0.21768206   0.35177281
895.00  -0.22683210   0.35294885
896.00  -0.23599207   0.35412749
897.00  -0.24516198   0.35530873
898.00  -0.25434181   0.35649258
899.00  -0.26353157   0.35767904
900.00  -0.27273126   0.35886810
901.00  -0.28194088   0.36005978
902.00  -0.29116042   0.36125408
903.00  -0.30038989   0.36245099
904.00  -0.30962928   0.36365052
905.00  -0.31887859   0.36485268
906.00  -0.32813783   0.36605746
907.00  -0.33740699   0.36726488
908.00  -0.34668607   0.36847493
909.00  -0.35597507   0.36968761
910.00  -0.36527398   0.37090293
911.00  -0.37458281   0.37212089
912.00  -0.38390156   0.37334149
913.00  -0.39323023   0.37456474
914.00  -0.40256880   0.37579064
915.00  -0.41191730   0.37701918
916.00  -0.42127570   0.37825039
917.00  -0.43064401   0.37948425
918.00  -0.44002224   0.38072077
919.00  -0.44941037   0.38195995
920.00  -0.45880841   0.38320180
921.00  -0.46821636   0.38444632
922.00  -0.47763422   0.38569350
923.00  -0.48706198   0.38694337
924.00  -0.49649964   0.38819590
925.00  -0.50594721   0.38945112
926.00  -0.51540468   0.39070902
927.00  -0.52487205   0.39196960
928.00  -0.53434932   0.39323287
929.00  -0.54383649   0.39449883
930.00  -0.55333355   0.39576748
931.00  -0.56284052   0.39703883
932.00  -0.57235738   0.39831288
933.00  -0.58188413   0.39958962
934.00  -0.59142078   0.40086908
935.00  -0.60096732   0.40215123
936.00  -0.61052376   0.40343610
937.00  -0.62009008   0.40472368
938.00  -0.62966629   0.40601397
939.00  -0.63925240   0.40730698
940.00  -0.64884839   0.40860272
941.00  -0.65845427   0.40990117
942.00  -0.66807003   0.41120235
943.00  -0.67769568   0.41250626
944.00  -0.68733121   0.41381290
945.00  -0.69697662   0.41512227
946.00  -0.70663192   0.41643439
947.00  -0.71629710   0.41774924
948.00  -0.72597215   0.41906683
949.00  -0.73565709   0.42038717
950.00  -0.74535190   0.42171025
951.00  -0.75505659   0.42303609
952.00  -0.76477115   0.42436467
953.00  -0.77449559   0.42569602
954.00  -0.78422990   0.42703012
955.00  -0.79397409   0.42836699
956.00  -0.80372814   0.42970661
957.00  -0.81349207   0.43104901
958.00  -0.82326586   0.43239417
959.00  -0.83304952   0.43374211
960.00  -0.84284305   0.43509282
961.00  -0.85264645   0.43644631
962.00  -0.86245971   0.43780258
963.00  -0.87228283   0.43916164
964.00  -0.88211582   0.44052348
965.00  -0.89195867   0.44188810
966.00  -0.90181138   0.44325552
967.00  -0.91167395   0.44462574
968.00  -0.92154638   0.44599875
969.00  -0.93142866   0.44737456
970.00  -0.94132081   0.44875317
971.00  -0.95122281   0.45013459
972.00  -0.96113466   0.45151881
973.00  -0.97105636   0.45290585
974.00  -0.98098792   0.45429570
975.00  -0.99092933   0.45568836
976.00  -1.00088059   0.45708385
977.00  -1.01084170   0.45848215
978.00  -1.02081266   0.45988328
979.00  -1.03079346   0.46128724
980.00  -1.04078411   0.46269402
981.00  -1.05078461   0.46410364
982.00  -1.06079494   0.46551609
983.00  -1.07081512   0.46693138
984.00  -1.08084515   0.46834951
985.00  -1.09088501   0.46977049
986.00  -1.10093471   0.47119431
987.00  -1.11099426   0.47262097
988.00  -1.12106363   0.47405049
989.00  -1.13114285   0.47548287
990.00  -1.14123190   0.47691810
991.00  -1.15133078   0.47835619
992.00  -1.16143950   0.47979714
993.00  -1.17155805   0.48124096
994.00  -1.18168643   0.48268764
995.00  -1.19182464   0.48413720
996.00  -1.20197268   0.48558963
997.00  -1.21213055   0.48704493
998.00  -1.22229824   0.48850311
999.00  -1.23247576   0.48996418
1000.00  -1.24266311   0.49142813
1001.00  -1.25286027   0.49289496
1002.00  -1.26306726   0.49436468
1003.00  -1.27328407   0.49583730
1004.00  -1.28351070   0.49731281
1005.00  -1.29374715   0.49879122
1006.00  -1.30399342   0.50027253
1007.00  -1.31424950   0.50175674
1008.00  -1.32451540   0.50324385
1009.00  -1.33479112   0.50473388
1010.00  -1.34507664   0.50622682
1011.00  -1.35537198   0.50772266
1012.00  -1.36567713   0.50922143
1013.00  -1.37599210   0.51072312
1014.00  -1.38631687   0.51222772
1015.00  -1.39665145   0.51373526
1016.00  -1.40699583   0.51524571
1017.00  -1.41735002   0.51675910
1018.00  -1.42771402   0.51827543
1019.00  -1.43808782   0.51979468
1020.00  -1.44847142   0.52131688
1021.00  -1.45886483   0.52284201
1022.00  -1.46926803   0.52437009
1023.00  -1.47968103   0.52590112
1024.00  -1.49010384   0.52743509
1025.00  -1.50053643   0.52897202
1026.00  -1.51097883   0.53051190
1027.00  -1.52143102   0.53205474
1028.00  -1.53189300   0.53360053
1029.00  -1.54236478   0.53514929
1030.00  -1.55284634   0.53670102
1031.00  -1.56333770   0.53825571
1032.00  -1.57383885   0.53981337
1033.00  -1.58434978   0.54137401
1034.00  -1.59487050   0.54293762
1035.00  -1.60540101   0.54450421
1036.00  -1.61594130   0.54607378
1037.00  -1.62649137   0.54764634
1038.00  -1.63705123   0.54922188
1039.00  -1.64762087   0.55080041
1040.00  -1.65820029   0.55238193
1041.00  -1.66878949   0.55396645
1042.00  -1.67938847   0.55555397
1043.00  -1.68999722   0.55714448
1044.00  -1.70061575   0.55873800
1045.00  -1.71124405   0.56033452
1046.00  -1.72188213   0.56193406
1047.00  -1.73252998   0.56353660
1048.00  -1.74318760   0.56514216
1049.00  -1.75385499   0.56675073
1050.00  -1.76453215   0.56836232
1051.00  -1.77521907   0.56997693
1052.00  -1.78591577   0.57159457
1053.00  -1.79662223   0.57321524
1054.00  -1.80733845   0.57483893
1055.00  -1.81806444   0.57646566
1056.00  -1.82880019   0.57809542
1057.00  -1.83954570   0.57972822
1058.00  -1.85030097   0.58136406
1059.00  -1.86106599   0.58300294
1060.00  -1.87184078   0.58464487
1061.00  -1.88262532   0.58628984
1062.00  -1.89341962   0.58793787
1063.00  -1.90422367   0.58958895
1064.00  -1.91503748   0.59124309
1065.00  -1.92586103   0.59290029
1066.00  -1.93669434   0.59456055
1067.00  -1.94753739   0.59622387
1068.00  -1.95839020   0.59789026
1069.00  -1.96925275   0.59955972
1070.00  -1.98012505   0.60123226
1071.00  -1.99100709   0.60290787
1072.00  -2.00189888   0.60458655
1073.00  -2.01280041   0.60626832
1074.00  -2.02371168   0.60795317
1075.00  -2.03463269   0.60964111
1076.00  -2.04556344   0.61133213
1077.00  -2.05650392   0.61302625
1078.00  -2.06745415   0.61472346
1079.00  -2.07841411   0.61642376
1080.00  -2.08938380   0.61812717
1081.00  -2.10036323   0.61983368
1082.00  -2.11135239   0.62154329
1083.00  -2.12235128   0.62325601
1084.00  -2.13335990   0.62497184
1085.00  -2.14437825   0.62669078
1086.00  -2.15540633   0.62841284
1087.00  -2.16644413   0.63013801
1088.00  -2.17749166   0.63186631
1089.00  -2.18854891   0.63359773
1090.00  -2.19961588   0.63533228
1091.00  -2.21069258   0.63706995
1092.00  -2.22177900   0.63881075
1093.00  -2.23287513   0.64055469
1094.00  -2.24398099   0.64230177
1095.00  -2.25509656   0.64405199
1096.00  -2.26622184   0.64580534
1097.00  -2.27735684   0.64756184
1098.00  -2.28850156   0.64932149
1099.00  -2.29965598   0.65108429
1100.00  -2.31082012   0.65285024
1101.00  -2.32199397   0.65461935
1102.00  -2.33317752   0.65639161
1103.00  -2.34437079   0.65816704
1104.00  -2.35557375   0.65994563
1105.00  -2.36678643   0.66172738
1106.00  -2.37800881   0.66351231
1107.00  -2.38924089   0.66530040
1108.00  -2.40048267   0.66709167
1109.00  -2.41173415   0.66888611
1110.00  -2.42299533   0.67068373
1111.00  -2.43426621   0.67248454
1112.00  -2.44554679   0.67428853
1113.00  -2.45683706   0.67609571
1114.00  -2.46813703   0.67790607
1115.00  -2.47944669   0.67971963
1116.00  -2.49076604   0.68153639
1117.00  -2.50209508   0.68335634
1118.00  -2.51343381   0.68517949
1119.00  -2.52478223   0.68700584
1120.00  -2.53614034   0.68883541
1121.00  -2.54750813   0.69066817
1122.00  -2.55888561   0.69250415
1123.00  -2.57027277   0.69434335
1124.00  -2.58166961   0.69618576
1125.00  -2.59307613   0.69803139
1126.00  -2.60449234   0.69988024
1127.00  -2.61591822   0.70173231
1128.00  -2.62735378   0.70358761
1129.00  -2.63879902   0.70544614
1130.00  -2.65025393   0.70730791
1131.00  -2.66171851   0.70917291
1132.00  -2.67319277   0.71104114
1133.00  -2.68467670   0.71291262
1134.00  -2.69617030   0.71478733
1135.00  -2.70767357   0.71666530
1136.00  -2.71918650   0.71854651
1137.00  -2.73070911   0.72043097
1138.00  -2.74224137   0.72231868
1139.00  -2.75378331   0.72420966
1140.00  -2.76533490   0.72610389
1141.00  -2.77689616   0.72800138
1142.00  -2.78846707   0.72990213
1143.00  -2.80004765   0.73180615
1144.00  -2.81163788   0.73371344
1145.00  -2.82323777   0.73562400
1146.00  -2.83484732   0.73753784
1147.00  -2.84646652   0.73945495
1148.00  -2.85809538   0.74137534
1149.00  -2.86973388   0.74329902
1150.00  -2.88138204   0.74522598
1151.00  -2.89303984   0.74715623
1152.00  -2.90470730   0.74908976
1153.00  -2.91638440   0.75102659
1154.00  -2.92807114   0.75296672
1155.00  -2.93976753   0.75491014
1156.00  -2.95147357   0.75685687
1157.00  -2.96318925   0.75880689
1158.00  -2.97491456   0.76076023
1159.00  -2.98664952   0.76271687
1160.00  -2.99839411   0.76467682
1161.00  -3.01014834   0.76664009
1162.00  -3.02191221   0.76860667
1163.00  -3.03368571   0.77057657
1164.00  -3.04546885   0.77254980
1165.00  -3.05726162   0.77452634
1166.00  -3.06906401   0.77650622
1167.00  -3.08087604   0.77848942
1168.00  -3.09269770   0.78047596
1169.00  -3.10452898   0.78246583
1170.00  -3.11636989   0.78445904
1171.00  -3.12822042   0.78645559
1172.00  -3.14008058   0.78845548
1173.00  -3.15195036   0.79045872
1174.00  -3.16382976   0.79246530
1175.00  -3.17571878   0.79447523
1176.00  -3.18761741   0.79648852
1177.00  -3.19952567   0.79850517
1178.00  -3.21144354   0.80052517
1179.00  -3.22337102   0.80254853
1180.00  -3.23530812   0.80457526
1181.00  -3.24725483   0.80660535
1182.00  -3.25921115   0.80863881
1183.00  -3.27117708   0.81067564
1184.00  -3.28315262   0.81271585
1185.00  -3.29513777   0.81475943
1186.00  -3.30713252   0.81680640
1187.00  -3.31913687   0.81885674
1188.00  -3.33115083   0.82091047
1189.00  -3.34317439   0.82296759
1190.00  -3.35520755   0.82502809
1191.00  -3.36725031   0.82709199
1192.00  -3.37930267   0.82915928
1193.00  -3.39136463   0.83122997
1194.00  -3.40343618   0.83330406
1195.00  -3.41551733   0.83538156
1196.00  -3.42760806   0.83746245
1197.00  -3.43970839   0.83954676
1198.00  -3.45181832   0.84163448
1199.00  -3.46393782   0.84372561
1200.00  -3.47606692   0.84582015
1201.00  -3.48820561   0.84791812
1202.00  -3.50035388   0.85001950
1203.00  -3.51251173   0.85212431
1204.00  -3.52467917   0.85423254
1205.00  -3.53685619   0.85634421
1206.00  -3.54904278   0.85845930
1207.00  -3.56123896   0.86057783
1208.00  -3.57344472   0.86269979
1209.00  -3.58566005   0.86482520
1210.00  -3.59788495   0.86695404
1211.00  -3.61011943   0.86908633
1212.00  -3.62236349   0.87122207
1213.00  -3.63461711   0.87336126
1214.00  -3.64688031   0.87550390
1215.00  -3.65915307   0.87764999
1216.00  -3.67143540   0.87979954
1217.00  -3.68372729   0.88195255
1218.00  -3.69602875   0.88410902
1219.00  -3.70833978   0.88626896
1220.00  -3.72066037   0.88843236
1221.00  -3.73299051   0.89059924
1222.00  -3.74533022   0.89276959
1223.00  -3.75767948   0.89494341
1224.00  -3.77003831   0.89712071
1225.00  -3.78240668   0.89930150
1226.00  -3.79478462   0.90148576
1227.00  -3.80717210   0.90367351
1228.00  -3.81956914   0.90586475
1229.00  -3.83197573   0.90805948
1230.00  -3.84439186   0.91025771
1231.00  -3.85681755   0.91245943
1232.00  -3.86925278   0.91466465
1233.00  -3.88169756   0.91687337
1234.00  -3.89415188   0.91908559
1235.00  -3.90661574   0.92130132
1236.00  -3.91908914   0.92352056
1237.00  -3.93157209   0.92574331
1238.00  -3.94406457   0.92796958
1239.00  -3.95656659   0.93019936
1240.00  -3.96907815   0.93243266
1241.00  -3.98159924   0.93466948
1242.00  -3.99412987   0.93690983
1243.00  -4.00667002   0.93915371
1244.00  -4.01921971   0.94140111
1245.00  -4.03177893   0.94365205
1246.00  -4.04434767   0.94590652
1247.00  -4.05692594   0.94816453
1248.00  -4.06951374   0.95042608
1249.00  -4.08211106   0.95269117
1250.00  -4.09471791   0.95495980
1251.00  -4.10733428   0.95723199
1252.00  -4.11996016   0.95950772
1253.00  -4.13259557   0.96178701
1254.00  -4.14524049   0.96406985
1255.00  -4.15789493   0.96635625
1256.00  -4.17055889   0.96864621
1257.00  -4.18323235   0.97093973
1258.00  -4.19591533   0.97323682
1259.00  -4.20860783   0.97553748
1260.00  -4.22130983   0.97784171
1261.00  -4.23402134   0.98014951
1262.00  -4.24674235   0.98246089
1263.00  -4.25947287   0.98477584
1264.00  -4.27221290   0.98709438
1265.00  -4.28496243   0.98941650
1266.00  -4.29772146   0.99174221
1267.00  -4.31048999   0.99407150
1268.00  -4.32326802   0.99640439
1269.00  -4.33605555   0.99874087
1270.00  -4.34885257   1.00108095
1271.00  -4.36165909   1.00342462
1272.00  -4.37447510   1.00577190
1273.00  -4.38730061   1.00812278
1274.00  -4.40013560   1.01047727
1275.00  -4.41298008   1.01283537
1276.00  -4.42583406   1.01519708
1277.00  -4.43869752   1.01756240
1278.00  -4.45157046   1.01993134
1279.00  -4.46445289   1.02230390
1280.00  -4.47734480   1.02468008
1281.00  -4.49024620   1.02705989
1282.00  -4.50315707   1.02944332
1283.00  -4.51607742   1.03183038
1284.00  -4.52900725   1.03422108
1285.00  -4.54194656   1.03661541
1286.00  -4.55489534   1.03901338
1287.00  -4.56785359   1.04141498
1288.00  -4.58082132   1.04382023
1289.00  -4.59379851   1.04622913
1290.00  -4.60678518   1.04864167
1291.00  -4.61978131   1.05105786
1292.00  -4.63278691   1.05347770
1293.00  -4.64580198   1.05590120
1294.00  -4.65882651   1.05832836
1295.00  -4.67186050   1.06075917
1296.00  -4.68490395   1.06319365
1297.00  -4.69795686   1.06563180
1298.00  -4.71101923   1.06807361
1299.00  -4.72409106   1.07051910
1300.00  -4.73717234   1.07296825
1301.00  -4.75026308   1.07542108
1302.00  -4.76336327   1.07787759
1303.00  -4.77647291   1.08033778
1304.00  -4.78959200   1.08280166
1305.00  -4.80272054   1.08526921
1306.00  -4.81585853   1.08774046
1307.00  -4.82900597   1.09021540
1308.00  -4.84216284   1.09269403
1309.00  -4.85532917   1.09517636
1310.00  -4.86850493   1.09766238
1311.00  -4.88169013   1.10015211
1312.00  -4.89488478   1.10264553
1313.00  -4.90808886   1.10514267
1314.00  -4.92130237   1.10764351
1315.00  -4.93452533   1.11014807
1316.00  -4.94775771   1.11265633
1317.00  -4.96099953   1.11516832
1318.00  -4.97425078   1.11768402
1319.00  -4.98751146   1.12020344
1320.00  -5.00078156   1.12272659
1321.00  -5.01406110   1.12525346
1322.00  -5.02735005   1.12778406
1323.00  -5.04064844   1.13031840
1324.00  -5.05395624   1.13285646
1325.00  -5.06727347   1.13539827
1326.00  -5.08060011   1.13794381
1327.00  -5.09393618   1.14049309
1328.00  -5.10728166   1.14304612
1329.00  -5.12063655   1.14560289
1330.00  -5.13400086   1.14816341
1331.00  -5.14737459   1.15072768
1332.00  -5.16075772   1.15329571
1333.00  -5.17415026   1.15586749
1334.00  -5.18755222   1.15844304
1335.00  -5.20096358   1.16102234
1336.00  -5.21438434   1.16360541
1337.00  -5.22781451   1.16619224
1338.00  -5.24125409   1.16878284
1339.00  -5.25470306   1.17137722
1340.00  -5.26816144   1.17397537
1341.00  -5.28162921   1.17657729
1342.00  -5.29510638   1.17918300
1343.00  -5.30859295   1.18179248
1344.00  -5.32208891   1.18440575
1345.00  -5.33559427   1.18702281
1346.00  -5.34910901   1.18964365
1347.00  -5.36263315   1.19226829
1348.00  -5.37616667   1.19489672
1349.00  -5.38970959   1.19752895
1350.00  -5.40326189   1.20016498
1351.00  -5.41682357   1.20280480
1352.00  -5.43039464   1.20544844
1353.00  -5.44397509   1.20809588
1354.00  -5.45756491   1.21074713
1355.00  -5.47116412   1.21340219
1356.00  -5.48477271   1.21606106
1357.00  -5.49839067   1.21872375
1358.00  -5.51201801   1.22139026
1359.00  -5.52565472   1.22406059
1360.00  -5.53930080   1.22673475
1361.00  -5.55295625   1.22941273
1362.00  -5.56662107   1.23209455
1363.00  -5.58029526   1.23478019
1364.00  -5.59397882   1.23746967
1365.00  -5.60767174   1.24016298
1366.00  -5.62137402   1.24286014
1367.00  -5.63508567   1.24556113
1368.00  -5.64880667   1.24826597
1369.00  -5.66253704   1.25097466
1370.00  -5.67627676   1.25368719
1371.00  -5.69002584   1.25640358
1372.00  -5.70378427   1.25912382
1373.00  -5.71755206   1.26184792
1374.00  -5.73132920   1.26457588
1375.00  -5.74511569   1.26730770
1376.00  -5.75891153   1.27004338
1377.00  -5.77271671   1.27278293
1378.00  -5.78653125   1.27552635
1379.00  -5.80035512   1.27827364
1380.00  -5.81418834   1.28102481
1381.00  -5.82803091   1.28377985
1382.00  -5.84188281   1.28653877
1383.00  -5.85574405   1.28930157
1384.00  -5.86961463   1.29206826
1385.00  -5.88349454   1.29483883
1386.00  -5.89738379   1.29761329
1387.00  -5.91128238   1.30039164
1388.00  -5.92519029   1.30317389
1389.00  -5.93910754   1.30596003
1390.00  -5.95303411   1.30875008
1391.00  -5.96697001   1.31154402
1392.00  -5.98091524   1.31434187
1393.00  -5.99486979   1.31714362
1394.00  -6.00883367   1.31994929
1395.00  -6.02280687   1.32275886
1396.00  -6.03678938   1.32557235
1397.00  -6.05078122   1.32838976
1398.00  -6.06478237   1.33121108
1399.00  -6.07879284   1.33403632
1400.00  -6.09281262   1.33686549
1401.00  -6.10684172   1.33969859
1402.00  -6.12088013   1.34253561
1403.00  -6.13492784   1.34537657
1404.00  -6.14898487   1.34822145
1405.00  -6.16305120   1.35107028
1406.00  -6.17712684   1.35392304
1407.00  -6.19121178   1.35677975
1408.00  -6.20530603   1.35964039
1409.00  -6.21940958   1.36250499
1410.00  -6.23352242   1.36537353
1411.00  -6.24764457   1.36824602
1412.00  -6.26177601   1.37112247
1413.00  -6.27591675   1.37400287
1414.00  -6.29006678   1.37688723
1415.00  -6.30422610   1.37977556
1416.00  -6.31839471   1.38266784
1417.00  -6.33257262   1.38556409
1418.00  -6.34675981   1.38846431
1419.00  -6.36095629   1.39136850
1420.00  -6.37516205   1.39427666
1421.00  -6.38937710   1.39718880
1422.00  -6.40360143   1.40010492
1423.00  -6.41783504   1.40302501
1424.00  -6.43207793   1.40594909
1425.00  -6.44633009   1.40887716
1426.00  -6.46059154   1.41180921
1427.00  -6.47486225   1.41474526
1428.00  -6.48914224   1.41768529
1429.00  -6.50343151   1.42062932
1430.00  -6.51773004   1.42357735
1431.00  -6.53203784   1.42652938
1432.00  -6.54635491   1.42948541
1433.00  -6.56068125   1.43244545
1434.00  -6.57501685   1.43540950
1435.00  -6.58936171   1.43837755
1436.00  -6.60371583   1.44134962
1437.00  -6.61807922   1.44432570
1438.00  -6.63245186   1.44730580
1439.00  -6.64683376   1.45028992
1440.00  -6.66122491   1.45327806
1441.00  -6.67562532   1.45627023
1442.00  -6.69003498   1.45926642
1443.00  -6.70445389   1.46226664
1444.00  -6.71888205   1.46527090
1445.00  -6.73331946   1.46827919
1446.00  -6.74776612   1.47129151
1447.00  -6.76222202   1.47430788
1448.00  -6.77668716   1.47732829
1449.00  -6.79116155   1.48035274
1450.00  -6.80564518   1.48338124
1451.00  -6.82013804   1.48641378
1452.00  -6.83464014   1.48945038
1453.00  -6.84915148   1.49249104
1454.00  -6.86367206   1.49553575
1455.00  -6.87820186   1.49858451
1456.00  -6.89274090   1.50163734
1457.00  -6.90728917   1.50469424
1458.00  -6.92184667   1.50775520
1459.00  -6.93641339   1.51082023
1460.00  -6.95098934   1.51388932
1461.00  -6.96557451   1.51696250
1462.00  -6.98016891   1.52003975
1463.00  -6.99477253   1.52312107
1464.00  -7.00938536   1.52620648
1465.00  -7.02400742   1.52929597
1466.00  -7.03863869   1.53238955
1467.00  -7.05327917   1.53548721
1468.00  -7.06792887   1.53858897
1469.00  -7.08258778   1.54169482
1470.00  -7.09725590   1.54480476
1471.00  -7.11193323   1.54791880
1472.00  -7.12661977   1.55103695
1473.00  -7.14131551   1.55415919
1474.00  -7.15602046   1.55728554
1475.00  -7.17073461   1.56041600
1476.00  -7.18545796   1.56355056
1477.00  -7.20019051   1.56668924
1478.00  -7.21493226   1.56983204
1479.00  -7.22968321   1.57297895
1480.00  -7.24444335   1.57612998
1481.00  -7.25921269   1.57928513
1482.00  -7.27399121   1.58244441
1483.00  -7.28877893   1.58560782
1484.00  -7.30357584   1.58877535
1485.00  -7.31838193   1.59194702
1486.00  -7.33319721   1.59512281
1487.00  -7.34802168   1.59830275
1488.00  -7.36285532   1.60148683
1489.00  -7.37769815   1.60467504
1490.00  -7.39255016   1.60786740
1491.00  -7.40741135   1.61106391
1492.00  -7.42228172   1.61426456
1493.00  -7.43716126   1.61746937
1494.00  -7.45204997   1.62067833
1495.00  -7.46694786   1.62389145
1496.00  -7.48185491   1.62710872
1497.00  -7.49677114   1.63033015
1498.00  -7.51169653   1.63355575
1499.00  -7.52663109   1.63678552
1500.00  -7.54157481   1.64001945
1501.00  -7.55652770   1.64325755
1502.00  -7.57148975   1.64649982
1503.00  -7.58646096   1.64974627
1504.00  -7.60144133   1.65299690
1505.00  -7.61643085   1.65625170
1506.00  -7.63142953   1.65951069
1507.00  -7.64643736   1.66277387
1508.00  -7.66145435   1.66604123
1509.00  -7.67648048   1.66931278
1510.00  -7.69151577   1.67258852
1511.00  -7.70656020   1.67586846
1512.00  -7.72161378   1.67915259
1513.00  -7.73667650   1.68244092
1514.00  -7.75174837   1.68573346
1515.00  -7.76682937   1.68903019
1516.00  -7.78191952   1.69233114
1517.00  -7.79701881   1.69563629
1518.00  -7.81212723   1.69894565
1519.00  -7.82724478   1.70225923
1520.00  -7.84237148   1.70557702
1521.00  -7.85750730   1.70889904
1522.00  -7.87265225   1.71222527
1523.00  -7.88780633   1.71555572
1524.00  -7.90296954   1.71889040
1525.00  -7.91814188   1.72222931
1526.00  -7.93332334   1.72557245
1527.00  -7.94851392   1.72891982
1528.00  -7.96371362   1.73227143
1529.00  -7.97892245   1.73562727
1530.00  -7.99414039   1.73898736
1531.00  -8.00936745   1.74235168
1532.00  -8.02460362   1.74572025
1533.00  -8.03984890   1.74909307
1534.00  -8.05510330   1.75247014
1535.00  -8.07036681   1.75585146
1536.00  -8.08563943   1.75923703
1537.00  -8.10092115   1.76262686
1538.00  -8.11621198   1.76602095
1539.00  -8.13151191   1.76941930
1540.00  -8.14682095   1.77282191
1541.00  -8.16213908   1.77622879
1542.00  -8.17746632   1.77963993
1543.00  -8.19280265   1.78305535
1544.00  -8.20814808   1.78647504
1545.00  -8.22350260   1.78989901
1546.00  -8.23886622   1.79332725
1547.00  -8.25423892   1.79675978
1548.00  -8.26962072   1.80019658
1549.00  -8.28501160   1.80363768
1550.00  -8.30041158   1.80708306
1551.00  -8.31582063   1.81053272
1552.00  -8.33123877   1.81398669
1553.00  -8.34666599   1.81744494
1554.00  -8.36210230   1.82090749
1555.00  -8.37754768   1.82437435
1556.00  -8.39300214   1.82784550
1557.00  -8.40846567   1.83132096
1558.00  -8.42393828   1.83480072
1559.00  -8.43941996   1.83828479
1560.00  -8.45491071   1.84177317
1561.00  -8.47041052   1.84526587
1562.00  -8.48591941   1.84876288
1563.00  -8.50143736   1.85226421
1564.00  -8.51696438   1.85576986
1565.00  -8.53250046   1.85927984
1566.00  -8.54804560   1.86279414
1567.00  -8.56359980   1.86631276
1568.00  -8.57916306   1.86983572
1569.00  -8.59473538   1.87336301
1570.00  -8.61031675   1.87689463
1571.00  -8.62590717   1.88043059
1572.00  -8.64150665   1.88397089
1573.00  -8.65711517   1.88751553
1574.00  -8.67273274   1.89106452
1575.00  -8.68835936   1.89461785
1576.00  -8.70399503   1.89817553
1577.00  -8.71963974   1.90173756
1578.00  -8.73529349   1.90530395
1579.00  -8.75095628   1.90887469
1580.00  -8.76662811   1.91244978
1581.00  -8.78230898   1.91602924
1582.00  -8.79799888   1.91961307
1583.00  -8.81369782   1.92320125
1584.00  -8.82940579   1.92679381
1585.00  -8.84512279   1.93039073
1586.00  -8.86084881   1.93399203
1587.00  -8.87658387   1.93759770
1588.00  -8.89232795   1.94120775
1589.00  -8.90808106   1.94482218
1590.00  -8.92384319   1.94844099
1591.00  -8.93961434   1.95206418
1592.00  -8.95539451   1.95569176
1593.00  -8.97118370   1.95932373
1594.00  -8.98698190   1.96296009
1595.00  -9.00278912   1.96660084
1596.00  -9.01860536   1.97024599
1597.00  -9.03443060   1.97389554
1598.00  -9.05026485   1.97754948
1599.00  -9.06610811   1.98120783
1600.00  -9.08196038   1.98487059
1601.00  -9.09782166   1.98853775
1602.00  -9.11369193   1.99220932
1603.00  -9.12957121   1.99588530
1604.00  -9.14545949   1.99956570
1605.00  -9.16135677   2.00325051
1606.00  -9.17726304   2.00693975
1607.00  -9.19317831   2.01063340
1608.00  -9.20910257   2.01433148
1609.00  -9.22503583   2.01803398
1610.00  -9.24097807   2.02174092
1611.00  -9.25692930   2.02545228
1612.00  -9.27288952   2.02916807
1613.00  -9.28885873   2.03288831
1614.00  -9.30483692   2.03661297
1615.00  -9.32082409   2.04034208
1616.00  -9.33682024   2.04407563
1617.00  -9.35282538   2.04781363
1618.00  -9.36883948   2.05155607
1619.00  -9.38486257   2.05530296
1620.00  -9.40089463   2.05905431
1621.00  -9.41693566   2.06281010
1622.00  -9.43298566   2.06657036
1623.00  -9.44904463   2.07033507
1624.00  -9.46511257   2.07410424
1625.00  -9.48118947   2.07787788
1626.00  -9.49727534   2.08165598
1627.00  -9.51337017   2.08543855
1628.00  -9.52947396   2.08922559
1629.00  -9.54558671   2.09301710
1630.00  -9.56170842   2.09681308
1631.00  -9.57783909   2.10061355
1632.00  -9.59397871   2.10441849
1633.00  -9.61012728   2.10822791
1634.00  -9.62628480   2.11204182
1635.00  -9.64245127   2.11586021
1636.00  -9.65862669   2.11968310
1637.00  -9.67481106   2.12351047
1638.00  -9.69100437   2.12734234
1639.00  -9.70720662   2.13117870
1640.00  -9.72341782   2.13501956
1641.00  -9.73963795   2.13886492
1642.00  -9.75586702   2.14271478
1643.00  -9.77210503   2.14656915
1644.00  -9.78835197   2.15042802
1645.00  -9.80460785   2.15429141
1646.00  -9.82087266   2.15815930
1647.00  -9.83714639   2.16203171
1648.00  -9.85342906   2.16590864
1649.00  -9.86972065   2.16979008
1650.00  -9.88602116   2.17367604
1651.00  -9.90233060   2.17756653
1652.00  -9.91864896   2.18146154
1653.00  -9.93497624   2.18536108
1654.00  -9.95131244   2.18926515
1655.00  -9.96765755   2.19317376
1656.00  -9.98401158   2.19708689
1657.00 -10.00037452   2.20100457
1658.00 -10.01674637   2.20492678
1659.00 -10.03312713   2.20885354
1660.00 -10.04951680   2.21278483
1661.00 -10.06591538   2.21672068
1662.00 -10.08232286   2.22066107
1663.00 -10.09873925   2.22460601
1664.00 -10.11516453   2.22855551
1665.00 -10.13159872   2.23250956
1666.00 -10.14804180   2.23646817
1667.00 -10.16449378   2.24043134
1668.00 -10.18095465   2.24439907
1669.00 -10.19742442   2.24837136
1670.00 -10.21390308   2.25234823
1671.00 -10.23039063   2.25632966
1672.00 -10.24688706   2.26031566
1673.00 -10.26339239   2.26430623
1674.00 -10.27990659   2.26830138
1675.00 -10.29642968   2.27230111
1676.00 -10.31296166   2.27630542
1677.00 -10.32950251   2.28031431
1678.00 -10.34605224   2.28432779
1679.00 -10.36261084   2.28834585
1680.00 -10.37917832   2.29236850
1681.00 -10.39575467   2.29639575
1682.00 -10.41233990   2.30042759
1683.00 -10.42893399   2.30446402
1684.00 -10.44553695   2.30850505
1685.00 -10.46214878   2.31255069
1686.00 -10.47876947   2.31660092
1687.00 -10.49539902   2.32065576
1688.00 -10.51203744   2.32471521
1689.00 -10.52868471   2.32877927
1690.00 -10.54534085   2.33284794
1691.00 -10.56200583   2.33692123
1692.00 -10.57867968   2.34099913
1693.00 -10.59536237   2.34508165
1694.00 -10.61205392   2.34916879
1695.00 -10.62875432   2.35326056
1696.00 -10.64546356   2.35735695
1697.00 -10.66218165   2.36145797
1698.00 -10.67890858   2.36556362
1699.00 -10.69564436   2.36967390
1700.00 -10.71238897   2.37378882
1701.00 -10.72914243   2.37790837
1702.00 -10.74590472   2.38203256
1703.00 -10.76267585   2.38616140
1704.00 -10.77945581   2.39029487
1705.00 -10.79624461   2.39443300
1706.00 -10.81304223   2.39857577
1707.00 -10.82984869   2.40272319
1708.00 -10.84666397   2.40687527
1709.00 -10.86348808   2.41103200
1710.00 -10.88032101   2.41519339
1711.00 -10.89716276   2.41935943
1712.00 -10.91401334   2.42353014
1713.00 -10.93087273   2.42770551
1714.00 -10.94774094   2.43188555
1715.00 -10.96461796   2.43607026
1716.00 -10.98150380   2.44025964
1717.00 -10.99839845   2.44445369
1718.00 -11.01530191   2.44865242
1719.00 -11.03221418   2.45285582
1720.00 -11.04913525   2.45706390
1721.00 -11.06606513   2.46127667
1722.00 -11.08300382   2.46549412
1723.00 -11.09995130   2.46971626
1724.00 -11.11690759   2.47394308
1725.00 -11.13387267   2.47817460
1726.00 -11.15084655   2.48241081
1727.00 -11.16782923   2.48665171
1728.00 -11.18482069   2.49089731
1729.00 -11.20182095   2.49514762
1730.00 -11.21883000   2.49940262
1731.00 -11.23584784   2.50366233
1732.00 -11.25287446   2.50792674
1733.00 -11.26990987   2.51219587
1734.00 -11.28695406   2.51646970
1735.00 -11.30400703   2.52074825
1736.00 -11.32106878   2.52503152
1737.00 -11.33813930   2.52931950
1738.00 -11.35521861   2.53361220
1739.00 -11.37230668   2.53790962
1740.00 -11.38940353   2.54221177
1741.00 -11.40650915   2.54651865
1742.00 -11.42362354   2.55083025
1743.00 -11.44074670   2.55514658
1744.00 -11.45787862   2.55946765
1745.00 -11.47501931   2.56379346
1746.00 -11.49216875   2.56812400
1747.00 -11.50932696   2.57245928
1748.00 -11.52649393   2.57679931
1749.00 -11.54366965   2.58114407
1750.00 -11.56085413   2.58549359
1751.00 -11.57804736   2.58984785
1752.00 -11.59524935   2.59420687
1753.00 -11.61246008   2.59857064
1754.00 -11.62967956   2.60293916
1755.00 -11.64690779   2.60731244
1756.00 -11.66414476   2.61169049
1757.00 -11.68139048   2.61607329
1758.00 -11.69864494   2.62046086
1759.00 -11.71590813   2.62485319
1760.00 -11.73318007   2.62925030
1761.00 -11.75046074   2.63365217
1762.00 -11.76775014   2.63805882
1763.00 -11.78504828   2.64247025
1764.00 -11.80235515   2.64688645
1765.00 -11.81967074   2.65130743
1766.00 -11.83699507   2.65573319
1767.00 -11.85432812   2.66016374
1768.00 -11.87166989   2.66459908
1769.00 -11.88902039   2.66903920
1770.00 -11.90637960   2.67348411
1771.00 -11.92374754   2.67793382
1772.00 -11.94112419   2.68238832
1773.00 -11.95850955   2.68684762
1774.00 -11.97590363   2.69131172
1775.00 -11.99330642   2.69578063
1776.00 -12.01071793   2.70025433
1777.00 -12.02813813   2.70473285
1778.00 -12.04556705   2.70921617
1779.00 -12.06300467   2.71370430
1780.00 -12.08045099   2.71819724
1781.00 -12.09790602   2.72269500
1782.00 -12.11536974   2.72719758
1783.00 -12.13284216   2.73170498
1784.00 -12.15032328   2.73621720
1785.00 -12.16781309   2.74073424
1786.00 -12.18531159   2.74525611
1787.00 -12.20281879   2.74978281
1788.00 -12.22033467   2.75431433
1789.00 -12.23785924   2.75885069
1790.00 -12.25539249   2.76339189
1791.00 -12.27293443   2.76793792
1792.00 -12.29048505   2.77248879
1793.00 -12.30804435   2.77704450
1794.00 -12.32561233   2.78160506
1795.00 -12.34318898   2.78617046
1796.00 -12.36077431   2.79074071
1797.00 -12.37836831   2.79531581
1798.00 -12.39597099   2.79989577
1799.00 -12.41358233   2.80448057
1800.00 -12.43120234   2.80907024
1801.00 -12.44883101   2.81366476
1802.00 -12.46646835   2.81826415
1803.00 -12.48411436   2.82286839
1804.00 -12.50176902   2.82747751
1805.00 -12.51943234   2.83209149
1806.00 -12.53710432   2.83671034
1807.00 -12.55478495   2.84133406
1808.00 -12.57247424   2.84596266
1809.00 -12.59017218   2.85059613
1810.00 -12.60787877   2.85523448
1811.00 -12.62559401   2.85987771
1812.00 -12.64331789   2.86452583
1813.00 -12.66105042   2.86917883
1814.00 -12.67879159   2.87383671
1815.00 -12.69654140   2.87849949
1816.00 -12.71429985   2.88316716
1817.00 -12.73206694   2.88783972
1818.00 -12.74984267   2.89251718
1819.00 -12.76762702   2.89719953
1820.00 -12.78542001   2.90188679
1821.00 -12.80322164   2.90657895
1822.00 -12.82103188   2.91127601
1823.00 -12.83885076   2.91597798
1824.00 -12.85667826   2.92068486
1825.00 -12.87451439   2.92539665
1826.00 -12.89235913   2.93011335
1827.00 -12.91021250   2.93483497
1828.00 -12.92807448   2.93956150
1829.00 -12.94594508   2.94429296
1830.00 -12.96382429   2.94902933
1831.00 -12.98171212   2.95377063
1832.00 -12.99960856   2.95851686
1833.00 -13.01751360   2.96326801
1834.00 -13.03542726   2.96802410
1835.00 -13.05334951   2.97278512
1836.00 -13.07128038   2.97755107
1837.00 -13.08921984   2.98232196
1838.00 -13.10716790   2.98709779
1839.00 -13.12512456   2.99187856
1840.00 -13.14308982   2.99666427
1841.00 -13.16106368   3.00145493
1842.00 -13.17904612   3.00625053
1843.00 -13.19703716   3.01105109
1844.00 -13.21503678   3.01585660
1845.00 -13.23304500   3.02066706
1846.00 -13.25106179   3.02548248
1847.00 -13.26908718   3.03030286
1848.00 -13.28712114   3.03512819
1849.00 -13.30516369   3.03995849
1850.00 -13.32321481   3.04479376
1851.00 -13.34127451   3.04963399
1852.00 -13.35934278   3.05447919
1853.00 -13.37741963   3.05932936
1854.00 -13.39550505   3.06418450
1855.00 -13.41359904   3.06904463
1856.00 -13.43170159   3.07390972
1857.00 -13.44981271   3.07877980
1858.00 -13.46793240   3.08365486
1859.00 -13.48606065   3.08853490
1860.00 -13.50419745   3.09341993
1861.00 -13.52234282   3.09830995
1862.00 -13.54049674   3.10320496
1863.00 -13.55865922   3.10810496
1864.00 -13.57683025   3.11300996
1865.00 -13.59500983   3.11791995
1866.00 -13.61319797   3.12283494
1867.00 -13.63139465   3.12775493
1868.00 -13.64959987   3.13267993
1869.00 -13.66781364   3.13760993
1870.00 -13.68603595   3.14254494
1871.00 -13.70426680   3.14748496
1872.00 -13.72250620   3.15242999
1873.00 -13.74075412   3.15738003
1874.00 -13.75901058   3.16233509
1875.00 -13.77727558   3.16729517
1876.00 -13.79554911   3.17226027
1877.00 -13.81383116   3.17723039
1878.00 -13.83212175   3.18220553
1879.00 -13.85042086   3.18718570
1880.00 -13.86872849   3.19217090
1881.00 -13.88704465   3.19716113
1882.00 -13.90536932   3.20215639
1883.00 -13.92370252   3.20715669
1884.00 -13.94204423   3.21216203
1885.00 -13.96039446   3.21717240
1886.00 -13.97875320   3.22218782
1887.00 -13.99712045   3.22720828
1888.00 -14.01549621   3.23223378
1889.00 -14.03388048   3.23726434
1890.00 -14.05227325   3.24229994
1891.00 -14.07067453   3.24734059
1892.00 -14.08908431   3.25238630
1893.00 -14.10750259   3.25743706
1894.00 -14.12592937   3.26249289
1895.00 -14.14436464   3.26755377
1896.00 -14.16280842   3.27261972
1897.00 -14.18126068   3.27769072
1898.00 -14.19972143   3.28276680
1899.00 -14.21819068   3.28784795
1900.00 -14.23666841   3.29293416
1901.00 -14.25515462   3.29802545
1902.00 -14.27364933   3.30312181
1903.00 -14.29215251   3.30822326
1904.00 -14.31066417   3.31332978
1905.00 -14.32918431   3.31844138
1906.00 -14.34771293   3.32355806
1907.00 -14.36625002   3.32867983
1908.00 -14.38479559   3.33380669
1909.00 -14.40334962   3.33893864
1910.00 -14.42191213   3.34407568
1911.00 -14.44048310   3.34921781
1912.00 -14.45906254   3.35436504
1913.00 -14.47765044   3.35951737
1914.00 -14.49624680   3.36467479
1915.00 -14.51485163   3.36983732
1916.00 -14.53346491   3.37500496
1917.00 -14.55208664   3.38017770
1918.00 -14.57071684   3.38535555
1919.00 -14.58935548   3.39053851
1920.00 -14.60800257   3.39572658
1921.00 -14.62665812   3.40091976
1922.00 -14.64532211   3.40611807
1923.00 -14.66399454   3.41132149
1924.00 -14.68267542   3.41653003
1925.00 -14.70136474   3.42174370
1926.00 -14.72006250   3.42696249
1927.00 -14.73876870   3.43218641
1928.00 -14.75748333   3.43741546
1929.00 -14.77620640   3.44264964
1930.00 -14.79493790   3.44788895
1931.00 -14.81367783   3.45313340
1932.00 -14.83242619   3.45838299
1933.00 -14.85118297   3.46363771
1934.00 -14.86994818   3.46889758
1935.00 -14.88872181   3.47416259
1936.00 -14.90750387   3.47943275
1937.00 -14.92629434   3.48470805
1938.00 -14.94509323   3.48998851
1939.00 -14.96390053   3.49527411
1940.00 -14.98271625   3.50056488
1941.00 -15.00154038   3.50586079
1942.00 -15.02037292   3.51116187
1943.00 -15.03921387   3.51646811
1944.00 -15.05806323   3.52177951
1945.00 -15.07692099   3.52709607
1946.00 -15.09578715   3.53241780
1947.00 -15.11466171   3.53774470
1948.00 -15.13354467   3.54307677
1949.00 -15.15243603   3.54841401
1950.00 -15.17133578   3.55375642
1951.00 -15.19024392   3.55910402
1952.00 -15.20916046   3.56445679
1953.00 -15.22808538   3.56981474
1954.00 -15.24701870   3.57517788
1955.00 -15.26596040   3.58054620
1956.00 -15.28491048   3.58591971
1957.00 -15.30386894   3.59129841
1958.00 -15.32283579   3.59668230
1959.00 -15.34181101   3.60207138
1960.00 -15.36079461   3.60746566
1961.00 -15.37978658   3.61286513
1962.00 -15.39878693   3.61826981
1963.00 -15.41779564   3.62367968
1964.00 -15.43681273   3.62909476
1965.00 -15.45583818   3.63451505
1966.00 -15.47487199   3.63994054
1967.00 -15.49391417   3.64537124
1968.00 -15.51296472   3.65080716
1969.00 -15.53202362   3.65624828
1970.00 -15.55109087   3.66169463
1971.00 -15.57016649   3.66714619
1972.00 -15.58925045   3.67260297
1973.00 -15.60834277   3.67806497
1974.00 -15.62744344   3.68353220
1975.00 -15.64655246   3.68900465
1976.00 -15.66566982   3.69448234
1977.00 -15.68479553   3.69996525
1978.00 -15.70392958   3.70545339
1979.00 -15.72307197   3.71094677
1980.00 -15.74222270   3.71644538
1981.00 -15.76138176   3.72194923
1982.00 -15.78054916   3.72745833
1983.00 -15.79972490   3.73297266
1984.00 -15.81890896   3.73849224
1985.00 -15.83810135   3.74401707
1986.00 -15.85730208   3.74954714
1987.00 -15.87651112   3.75508246
1988.00 -15.89572849   3.76062304
1989.00 -15.91495418   3.76616887
1990.00 -15.93418819   3.77171996
1991.00 -15.95343052   3.77727630
1992.00 -15.97268117   3.78283791
1993.00 -15.99194013   3.78840478
1994.00 -16.01120740   3.79397691
1995.00 -16.03048298   3.79955431
1996.00 -16.04976687   3.80513698
1997.00 -16.06905907   3.81072492
1998.00 -16.08835957   3.81631813
1999.00 -16.10766837   3.82191662
2000.00 -16.12698548   3.82752039
