wavelength(nm)         real         imag
200.00   3.76611105   0.00255886
201.00   3.76476931   0.00259743
202.00   3.76342088   0.00263638
203.00   3.76206578   0.00267572
204.00   3.76070399   0.00271544
205.00   3.75933552   0.00275556
206.00   3.75796037   0.00279607
207.00   3.75657854   0.00283698
208.00   3.75519002   0.00287828
209.00   3.75379483   0.00291999
210.00   3.75239295   0.00296209
211.00   3.75098440   0.00300460
212.00   3.74956916   0.00304751
213.00   3.74814725   0.00309082
214.00   3.74671865   0.00313455
215.00   3.74528337   0.00317868
216.00   3.74384141   0.00322323
217.00   3.74239278   0.00326819
218.00   3.74093746   0.00331357
219.00   3.73947546   0.00335937
220.00   3.73800679   0.00340558
221.00   3.73653143   0.00345222
222.00   3.73504940   0.00349928
223.00   3.73356069   0.00354677
224.00   3.73206530   0.00359468
225.00   3.73056323   0.00364302
226.00   3.72905448   0.00369180
227.00   3.72753905   0.00374101
228.00   3.72601695   0.00379065
229.00   3.72448817   0.00384073
230.00   3.72295271   0.00389125
231.00   3.72141057   0.00394221
232.00   3.71986176   0.00399361
233.00   3.71830627   0.00404546
234.00   3.71674410   0.00409775
235.00   3.71517525   0.00415050
236.00   3.71359973   0.00420369
237.00   3.71201753   0.00425733
238.00   3.71042866   0.00431143
239.00   3.70883311   0.00436599
240.00   3.70723088   0.00442100
241.00   3.70562198   0.00447647
242.00   3.70400640   0.00453241
243.00   3.70238414   0.00458881
244.00   3.70075521   0.00464567
245.00   3.69911961   0.00470301
246.00   3.69747733   0.00476081
247.00   3.69582838   0.00481908
248.00   3.69417275   0.00487783
249.00   3.69251045   0.00493705
250.00   3.69084147   0.00499675
251.00   3.68916582   0.00505693
252.00   3.68748349   0.00511759
253.00   3.68579450   0.00517873
254.00   3.68409883   0.00524035
255.00   3.68239648   0.00530247
256.00   3.68068746   0.00536507
257.00   3.67897177   0.00542816
258.00   3.67724941   0.00549175
259.00   3.67552037   0.00555583
260.00   3.67378466   0.00562040
261.00   3.67204228   0.00568547
262.00   3.67029323   0.00575105
263.00   3.66853751   0.00581712
264.00   3.66677511   0.00588370
265.00   3.66500604   0.00595079
266.00   3.66323031   0.00601838
267.00   3.66144790   0.00608648
268.00   3.65965882   0.00615510
269.00   3.65786307   0.00622422
270.00   3.65606064   0.00629387
271.00   3.65425155   0.00636403
272.00   3.65243579   0.00643471
273.00   3.65061336   0.00650591
274.00   3.64878426   0.00657763
275.00   3.64694849   0.00664988
276.00   3.64510605   0.00672265
277.00   3.64325694   0.00679595
278.00   3.64140117   0.00686979
279.00   3.63953872   0.00694415
280.00   3.63766961   0.00701905
281.00   3.63579382   0.00709449
282.00   3.63391137   0.00717047
283.00   3.63202226   0.00724698
284.00   3.63012647   0.00732404
285.00   3.62822402   0.00740164
286.00   3.62631490   0.00747979
287.00   3.62439911   0.00755848
288.00   3.62247666   0.00763772
289.00   3.62054754   0.00771752
290.00   3.61861175   0.00779787
291.00   3.61666930   0.00787877
292.00   3.61472018   0.00796023
293.00   3.61276440   0.00804225
294.00   3.61080195   0.00812484
295.00   3.60883283   0.00820798
296.00   3.60685705   0.00829169
297.00   3.60487461   0.00837597
298.00   3.60288550   0.00846081
299.00   3.60088973   0.00854623
300.00   3.59888729   0.00863222
301.00   3.59687819   0.00871878
302.00   3.59486242   0.00880592
303.00   3.59283999   0.00889363
304.00   3.59081090   0.00898193
305.00   3.58877515   0.00907081
306.00   3.58673273   0.00916027
307.00   3.58468365   0.00925032
308.00   3.58262790   0.00934096
309.00   3.58056550   0.00943218
310.00   3.57849643   0.00952400
311.00   3.57642070   0.00961641
312.00   3.57433831   0.00970942
313.00   3.57224926   0.00980302
314.00   3.57015355   0.00989722
315.00   3.56805118   0.00999203
316.00   3.56594214   0.01008743
317.00   3.56382645   0.01018345
318.00   3.56170409   0.01028006
319.00   3.55957508   0.01037729
320.00   3.55743941   0.01047513
321.00   3.55529707   0.01057358
322.00   3.55314808   0.01067264
323.00   3.55099243   0.01077232
324.00   3.54883012   0.01087262
325.00   3.54666115   0.01097354
326.00   3.54448552   0.01107508
327.00   3.54230324   0.01117724
328.00   3.54011430   0.01128003
329.00   3.53791870   0.01138345
330.00   3.53571644   0.01148750
331.00   3.53350752   0.01159218
332.00   3.53129195   0.01169749
333.00   3.52906972   0.01180344
334.00   3.52684084   0.01191002
335.00   3.52460530   0.01201724
336.00   3.52236310   0.01212511
337.00   3.52011425   0.01223362
338.00   3.51785875   0.01234277
339.00   3.51559658   0.01245257
340.00   3.51332777   0.01256301
341.00   3.51105230   0.01267411
342.00   3.50877017   0.01278586
343.00   3.50648139   0.01289827
344.00   3.50418596   0.01301133
345.00   3.50188387   0.01312505
346.00   3.49957513   0.01323942
347.00   3.49725974   0.01335446
348.00   3.49493769   0.01347017
349.00   3.49260899   0.01358654
350.00   3.49027364   0.01370358
351.00   3.48793164   0.01382128
352.00   3.48558298   0.01393966
353.00   3.48322767   0.01405871
354.00   3.48086572   0.01417844
355.00   3.47849711   0.01429884
356.00   3.47612185   0.01441992
357.00   3.47373994   0.01454169
358.00   3.47135138   0.01466413
359.00   3.46895617   0.01478726
360.00   3.46655430   0.01491108
361.00   3.46414579   0.01503559
362.00   3.46173064   0.01516078
363.00   3.45930883   0.01528667
364.00   3.45688037   0.01541325
365.00   3.45444527   0.01554053
366.00   3.45200351   0.01566851
367.00   3.44955511   0.01579718
368.00   3.44710006   0.01592656
369.00   3.44463837   0.01605664
370.00   3.44217002   0.01618743
371.00   3.43969503   0.01631892
372.00   3.43721340   0.01645113
373.00   3.43472511   0.01658404
374.00   3.43223018   0.01671767
375.00   3.42972861   0.01685201
376.00   3.42722039   0.01698707
377.00   3.42470552   0.01712285
378.00   3.42218401   0.01725935
379.00   3.41965586   0.01739657
380.00   3.41712106   0.01753452
381.00   3.41457962   0.01767319
382.00   3.41203153   0.01781259
383.00   3.40947680   0.01795272
384.00   3.40691542   0.01809358
385.00   3.40434741   0.01823518
386.00   3.40177275   0.01837751
387.00   3.39919145   0.01852058
388.00   3.39660350   0.01866439
389.00   3.39400892   0.01880894
390.00   3.39140769   0.01895424
391.00   3.38879982   0.01910028
392.00   3.38618531   0.01924707
393.00   3.38356416   0.01939460
394.00   3.38093637   0.01954289
395.00   3.37830194   0.01969193
396.00   3.37566087   0.01984172
397.00   3.37301316   0.01999227
398.00   3.37035881   0.02014358
399.00   3.36769782   0.02029566
400.00   3.36503019   0.02044849
401.00   3.36235592   0.02060208
402.00   3.35967502   0.02075645
403.00   3.35698748   0.02091158
404.00   3.35429330   0.02106748
405.00   3.35159248   0.02122415
406.00   3.34888503   0.02138160
407.00   3.34617094   0.02153982
408.00   3.34345021   0.02169882
409.00   3.34072285   0.02185860
410.00   3.33798885   0.02201916
411.00   3.33524822   0.02218050
412.00   3.33250095   0.02234263
413.00   3.32974705   0.02250554
414.00   3.32698651   0.02266925
415.00   3.32421933   0.02283374
416.00   3.32144553   0.02299903
417.00   3.31866509   0.02316511
418.00   3.31587801   0.02333199
419.00   3.31308431   0.02349967
420.00   3.31028397   0.02366814
421.00   3.30747700   0.02383742
422.00   3.30466339   0.02400750
423.00   3.30184316   0.02417839
424.00   3.29901629   0.02435009
425.00   3.29618279   0.02452259
426.00   3.29334266   0.02469591
427.00   3.29049590   0.02487004
428.00   3.28764251   0.02504498
429.00   3.28478249   0.02522074
430.00   3.28191584   0.02539733
431.00   3.27904257   0.02557473
432.00   3.27616266   0.02575295
433.00   3.27327612   0.02593200
434.00   3.27038296   0.02611188
435.00   3.26748316   0.02629258
436.00   3.26457674   0.02647412
437.00   3.26166369   0.02665649
438.00   3.25874402   0.02683969
439.00   3.25581772   0.02702373
440.00   3.25288479   0.02720860
441.00   3.24994523   0.02739432
442.00   3.24699905   0.02758087
443.00   3.24404624   0.02776827
444.00   3.24108681   0.02795652
445.00   3.23812076   0.02814561
446.00   3.23514808   0.02833555
447.00   3.23216877   0.02852635
448.00   3.22918284   0.02871799
449.00   3.22619029   0.02891050
450.00   3.22319111   0.02910385
451.00   3.22018531   0.02929807
452.00   3.21717289   0.02949315
453.00   3.21415385   0.02968909
454.00   3.21112818   0.02988589
455.00   3.20809590   0.03008356
456.00   3.20505699   0.03028210
457.00   3.20201146   0.03048151
458.00   3.19895931   0.03068179
459.00   3.19590054   0.03088294
460.00   3.19283515   0.03108497
461.00   3.18976314   0.03128788
462.00   3.18668451   0.03149166
463.00   3.18359926   0.03169633
464.00   3.18050739   0.03190188
465.00   3.17740891   0.03210831
466.00   3.17430380   0.03231564
467.00   3.17119208   0.03252385
468.00   3.16807374   0.03273295
469.00   3.16494879   0.03294294
470.00   3.16181722   0.03315383
471.00   3.15867903   0.03336561
472.00   3.15553423   0.03357830
473.00   3.15238281   0.03379188
474.00   3.14922477   0.03400636
475.00   3.14606012   0.03422175
476.00   3.14288886   0.03443805
477.00   3.13971098   0.03465525
478.00   3.13652649   0.03487336
479.00   3.13333538   0.03509238
480.00   3.13013766   0.03531232
481.00   3.12693333   0.03553317
482.00   3.12372239   0.03575494
483.00   3.12050483   0.03597763
484.00   3.11728067   0.03620123
485.00   3.11404989   0.03642576
486.00   3.11081250   0.03665122
487.00   3.10756850   0.03687760
488.00   3.10431788   0.03710491
489.00   3.10106066   0.03733315
490.00   3.09779683   0.03756232
491.00   3.09452639   0.03779242
492.00   3.09124934   0.03802346
493.00   3.08796569   0.03825544
494.00   3.08467542   0.03848836
495.00   3.08137855   0.03872222
496.00   3.07807506   0.03895702
497.00   3.07476498   0.03919277
498.00   3.07144828   0.03942947
499.00   3.06812498   0.03966711
500.00   3.06479507   0.03990570
501.00   3.06145856   0.04014525
502.00   3.05811544   0.04038575
503.00   3.05476572   0.04062721
504.00   3.05140939   0.04086963
505.00   3.04804646   0.04111301
506.00   3.04467692   0.04135734
507.00   3.04130078   0.04160265
508.00   3.03791804   0.04184892
509.00   3.03452869   0.04209615
510.00   3.03113275   0.04234436
511.00   3.02773020   0.04259353
512.00   3.02432104   0.04284368
513.00   3.02090529   0.04309481
514.00   3.01748294   0.04334691
515.00   3.01405398   0.04359999
516.00   3.01061843   0.04385406
517.00   3.00717627   0.04410910
518.00   3.00372752   0.04436513
519.00   3.00027217   0.04462215
520.00   2.99681022   0.04488015
521.00   2.99334167   0.04513914
522.00   2.98986652   0.04539913
523.00   2.98638477   0.04566011
524.00   2.98289643   0.04592209
525.00   2.97940149   0.04618506
526.00   2.97589996   0.04644903
527.00   2.97239183   0.04671401
528.00   2.96887710   0.04697998
529.00   2.96535578   0.04724697
530.00   2.96182786   0.04751496
531.00   2.95829335   0.04778396
532.00   2.95475224   0.04805396
533.00   2.95120454   0.04832499
534.00   2.94765025   0.04859702
535.00   2.94408936   0.04887008
536.00   2.94052189   0.04914415
537.00   2.93694782   0.04941924
538.00   2.93336715   0.04969535
539.00   2.92977990   0.04997249
540.00   2.92618605   0.05025065
541.00   2.92258562   0.05052984
542.00   2.91897859   0.05081006
543.00   2.91536498   0.05109131
544.00   2.91174477   0.05137359
545.00   2.90811798   0.05165691
546.00   2.90448460   0.05194127
547.00   2.90084463   0.05222666
548.00   2.89719807   0.05251310
549.00   2.89354492   0.05280058
550.00   2.88988519   0.05308910
551.00   2.88621887   0.05337867
552.00   2.88254596   0.05366929
553.00   2.87886647   0.05396095
554.00   2.87518039   0.05425367
555.00   2.87148773   0.05454744
556.00   2.86778849   0.05484227
557.00   2.86408265   0.05513816
558.00   2.86037024   0.05543510
559.00   2.85665124   0.05573311
560.00   2.85292566   0.05603217
561.00   2.84919349   0.05633231
562.00   2.84545475   0.05663351
563.00   2.84170942   0.05693578
564.00   2.83795751   0.05723912
565.00   2.83419902   0.05754353
566.00   2.83043395   0.05784902
567.00   2.82666230   0.05815558
568.00   2.82288406   0.05846322
569.00   2.81909925   0.05877194
570.00   2.81530786   0.05908174
571.00   2.81150990   0.05939263
572.00   2.80770535   0.05970460
573.00   2.80389422   0.06001765
574.00   2.80007652   0.06033180
575.00   2.79625224   0.06064704
576.00   2.79242139   0.06096337
577.00   2.78858396   0.06128080
578.00   2.78473995   0.06159932
579.00   2.78088937   0.06191894
580.00   2.77703221   0.06223966
581.00   2.77316848   0.06256149
582.00   2.76929818   0.06288441
583.00   2.76542130   0.06320845
584.00   2.76153785   0.06353359
585.00   2.75764782   0.06385984
586.00   2.75375123   0.06418720
587.00   2.74984806   0.06451568
588.00   2.74593832   0.06484527
589.00   2.74202201   0.06517597
590.00   2.73809912   0.06550780
591.00   2.73416967   0.06584075
592.00   2.73023365   0.06617482
593.00   2.72629106   0.06651001
594.00   2.72234190   0.06684634
595.00   2.71838617   0.06718378
596.00   2.71442387   0.06752236
597.00   2.71045501   0.06786208
598.00   2.70647958   0.06820292
599.00   2.70249758   0.06854490
600.00   2.69850902   0.06888802
601.00   2.69451389   0.06923228
602.00   2.69051219   0.06957768
603.00   2.68650393   0.06992422
604.00   2.68248910   0.07027191
605.00   2.67846771   0.07062074
606.00   2.67443976   0.07097072
607.00   2.67040525   0.07132185
608.00   2.66636417   0.07167414
609.00   2.66231652   0.07202758
610.00   2.65826232   0.07238217
611.00   2.65420156   0.07273793
612.00   2.65013423   0.07309484
613.00   2.64606034   0.07345292
614.00   2.64197990   0.07381216
615.00   2.63789289   0.07417256
616.00   2.63379932   0.07453413
617.00   2.62969920   0.07489687
618.00   2.62559252   0.07526078
619.00   2.62147927   0.07562587
620.00   2.61735948   0.07599212
621.00   2.61323312   0.07635956
622.00   2.60910021   0.07672817
623.00   2.60496074   0.07709797
624.00   2.60081471   0.07746894
625.00   2.59666213   0.07784110
626.00   2.59250300   0.07821445
627.00   2.58833731   0.07858898
628.00   2.58416507   0.07896470
629.00   2.57998627   0.07934161
630.00   2.57580092   0.07971972
631.00   2.57160902   0.08009902
632.00   2.56741057   0.08047952
633.00   2.56320556   0.08086122
634.00   2.55899400   0.08124411
635.00   2.55477590   0.08162822
636.00   2.55055124   0.08201352
637.00   2.54632003   0.08240003
638.00   2.54208227   0.08278775
639.00   2.53783797   0.08317668
640.00   2.53358711   0.08356682
641.00   2.52932971   0.08395817
642.00   2.52506576   0.08435074
643.00   2.52079526   0.08474452
644.00   2.51651822   0.08513953
645.00   2.51223463   0.08553576
646.00   2.50794449   0.08593320
647.00   2.50364781   0.08633188
648.00   2.49934459   0.08673178
649.00   2.49503482   0.08713290
650.00   2.49071850   0.08753526
651.00   2.48639565   0.08793885
652.00   2.48206625   0.08834368
653.00   2.47773030   0.08874974
654.00   2.47338782   0.08915703
655.00   2.46903879   0.08956557
656.00   2.46468323   0.08997535
657.00   2.46032112   0.09038637
658.00   2.45595247   0.09079863
659.00   2.45157728   0.09121215
660.00   2.44719556   0.09162691
661.00   2.44280729   0.09204292
662.00   2.43841249   0.09246018
663.00   2.43401115   0.09287870
664.00   2.42960327   0.09329847
665.00   2.42518886   0.09371951
666.00   2.42076791   0.09414180
667.00   2.41634042   0.09456535
668.00   2.41190640   0.09499017
669.00   2.40746584   0.09541625
670.00   2.40301875   0.09584360
671.00   2.39856513   0.09627221
672.00   2.39410497   0.09670210
673.00   2.38963828   0.09713326
674.00   2.38516505   0.09756570
675.00   2.38068530   0.09799941
676.00   2.37619901   0.09843440
677.00   2.37170619   0.09887067
678.00   2.36720684   0.09930822
679.00   2.36270097   0.09974705
680.00   2.35818856   0.10018717
681.00   2.35366962   0.10062858
682.00   2.34914416   0.10107127
683.00   2.34461216   0.10151526
684.00   2.34007364   0.10196054
685.00   2.33552859   0.10240712
686.00   2.33097702   0.10285499
687.00   2.32641892   0.10330416
688.00   2.32185429   0.10375463
689.00   2.31728314   0.10420640
690.00   2.31270546   0.10465947
691.00   2.30812126   0.10511385
692.00   2.30353054   0.10556954
693.00   2.29893329   0.10602654
694.00   2.29432952   0.10648485
695.00   2.28971923   0.10694447
696.00   2.28510242   0.10740541
697.00   2.28047909   0.10786766
698.00   2.27584923   0.10833124
699.00   2.27121286   0.10879613
700.00   2.26656996   0.10926234
701.00   2.26192055   0.10972988
702.00   2.25726462   0.11019875
703.00   2.25260217   0.11066894
704.00   2.24793320   0.11114046
705.00   2.24325771   0.11161332
706.00   2.23857571   0.11208750
707.00   2.23388720   0.11256302
708.00   2.22919216   0.11303988
709.00   2.22449061   0.11351808
710.00   2.21978255   0.11399762
711.00   2.21506798   0.11447850
712.00   2.21034689   0.11496072
713.00   2.20561928   0.11544429
714.00   2.20088517   0.11592921
715.00   2.19614454   0.11641548
716.00   2.19139740   0.11690310
717.00   2.18664375   0.11739207
718.00   2.18188359   0.11788240
719.00   2.17711692   0.11837408
720.00   2.17234374   0.11886713
721.00   2.16756405   0.11936153
722.00   2.16277785   0.11985730
723.00   2.15798515   0.12035443
724.00   2.15318593   0.12085293
725.00   2.14838022   0.12135279
726.00   2.14356799   0.12185403
727.00   2.13874926   0.12235664
728.00   2.13392402   0.12286062
729.00   2.12909228   0.12336597
730.00   2.12425403   0.12387271
731.00   2.11940928   0.12438082
732.00   2.11455803   0.12489031
733.00   2.10970028   0.12540119
734.00   2.10483602   0.12591345
735.00   2.09996526   0.12642710
736.00   2.09508800   0.12694213
737.00   2.09020424   0.12745855
738.00   2.08531398   0.12797637
739.00   2.08041722   0.12849558
740.00   2.07551396   0.12901619
741.00   2.07060420   0.12953819
742.00   2.06568794   0.13006159
743.00   2.06076519   0.13058639
744.00   2.05583594   0.13111260
745.00   2.05090019   0.13164021
746.00   2.04595795   0.13216922
747.00   2.04100921   0.13269965
748.00   2.03605398   0.13323148
749.00   2.03109226   0.13376473
750.00   2.02612404   0.13429939
751.00   2.02114932   0.13483546
752.00   2.01616812   0.13537296
753.00   2.01118042   0.13591187
754.00   2.00618623   0.13645220
755.00   2.00118555   0.13699396
756.00   1.99617838   0.13753714
757.00   1.99116472   0.13808175
758.00   1.98614457   0.13862778
759.00   1.98111793   0.13917525
760.00   1.97608480   0.13972414
761.00   1.97104519   0.14027447
762.00   1.96599909   0.14082624
763.00   1.96094650   0.14137944
764.00   1.95588742   0.14193409
765.00   1.95082186   0.14249017
766.00   1.94574982   0.14304770
767.00   1.94067129   0.14360667
768.00   1.93558627   0.14416708
769.00   1.93049478   0.14472895
770.00   1.92539680   0.14529227
771.00   1.92029233   0.14585703
772.00   1.91518139   0.14642326
773.00   1.91006397   0.14699093
774.00   1.90494006   0.14756007
775.00   1.89980967   0.14813066
776.00   1.89467281   0.14870271
777.00   1.88952947   0.14927623
778.00   1.88437964   0.14985121
779.00   1.87922334   0.15042766
780.00   1.87406057   0.15100558
781.00   1.86889131   0.15158497
782.00   1.86371558   0.15216583
783.00   1.85853337   0.15274816
784.00   1.85334469   0.15333197
785.00   1.84814954   0.15391725
786.00   1.84294791   0.15450401
787.00   1.83773980   0.15509226
788.00   1.83252523   0.15568199
789.00   1.82730418   0.15627320
790.00   1.82207666   0.15686590
791.00   1.81684267   0.15746009
792.00   1.81160221   0.15805576
793.00   1.80635528   0.15865293
794.00   1.80110188   0.15925160
795.00   1.79584201   0.15985175
796.00   1.79057567   0.16045341
797.00   1.78530286   0.16105657
798.00   1.78002359   0.16166122
799.00   1.77473785   0.16226738
800.00   1.76944565   0.16287504
801.00   1.76414697   0.16348421
802.00   1.75884184   0.16409489
803.00   1.75353024   0.16470707
804.00   1.74821217   0.16532077
805.00   1.74288765   0.16593599
806.00   1.73755666   0.16655271
807.00   1.73221921   0.16717096
808.00   1.72687529   0.16779072
809.00   1.72152492   0.16841201
810.00   1.71616808   0.16903481
811.00   1.71080479   0.16965915
812.00   1.70543504   0.17028500
813.00   1.70005882   0.17091239
814.00   1.69467615   0.17154131
815.00   1.68928703   0.17217175
816.00   1.68389144   0.17280373
817.00   1.67848940   0.17343725
818.00   1.67308091   0.17407230
819.00   1.66766596   0.17470890
820.00   1.66224455   0.17534703
821.00   1.65681669   0.17598670
822.00   1.65138238   0.17662792
823.00   1.64594161   0.17727069
824.00   1.64049440   0.17791500
825.00   1.63504073   0.17856086
826.00   1.62958061   0.17920828
827.00   1.62411403   0.17985725
828.00   1.61864101   0.18050777
829.00   1.61316154   0.18115985
830.00   1.60767563   0.18181349
831.00   1.60218326   0.18246869
832.00   1.59668445   0.18312545
833.00   1.59117918   0.18378377
834.00   1.58566748   0.18444366
835.00   1.58014932   0.18510512
836.00   1.57462473   0.18576815
837.00   1.56909368   0.18643275
838.00   1.56355620   0.18709892
839.00   1.55801227   0.18776667
840.00   1.55246190   0.18843600
841.00   1.54690508   0.18910690
842.00   1.54134183   0.18977938
843.00   1.53577213   0.19045345
844.00   1.53019599   0.19112910
845.00   1.52461342   0.19180633
846.00   1.51902440   0.19248516
847.00   1.51342894   0.19316557
848.00   1.50782705   0.19384757
849.00   1.50221872   0.19453117
850.00   1.49660396   0.19521636
851.00   1.49098275   0.19590314
852.00   1.48535512   0.19659153
853.00   1.47972104   0.19728151
854.00   1.47408053   0.19797310
855.00   1.46843359   0.19866629
856.00   1.46278022   0.19936109
857.00   1.45712041   0.20005749
858.00   1.45145417   0.20075550
859.00   1.44578150   0.20145513
860.00   1.44010240   0.20215636
861.00   1.43441687   0.20285921
862.00   1.42872491   0.20356368
863.00   1.42302653   0.20426976
864.00   1.41732171   0.20497747
865.00   1.41161046   0.20568679
866.00   1.40589279   0.20639774
867.00   1.40016869   0.20711032
868.00   1.39443817   0.20782452
869.00   1.38870122   0.20854035
870.00   1.38295785   0.20925781
871.00   1.37720805   0.20997690
872.00   1.37145183   0.21069763
873.00   1.36568919   0.21141999
874.00   1.35992012   0.21214399
875.00   1.35414464   0.21286963
876.00   1.34836273   0.21359692
877.00   1.34257440   0.21432584
878.00   1.33677965   0.21505641
879.00   1.33097849   0.21578863
880.00   1.32517090   0.21652249
881.00   1.31935690   0.21725801
882.00   1.31353648   0.21799517
883.00   1.30770965   0.21873399
884.00   1.30187639   0.21947447
885.00   1.29603673   0.22021660
886.00   1.29019065   0.22096040
887.00   1.28433815   0.22170585
888.00   1.27847924   0.22245297
889.00   1.27261392   0.22320175
890.00   1.26674219   0.22395219
891.00   1.26086404   0.22470431
892.00   1.25497949   0.22545809
893.00   1.24908852   0.22621355
894.00   1.24319114   0.22697068
895.00   1.23728736   0.22772949
896.00   1.23137717   0.22848997
897.00   1.22546057   0.22925213
898.00   1.21953756   0.23001597
899.00   1.21360815   0.23078150
900.00   1.20767233   0.23154871
901.00   1.20173010   0.23231760
902.00   1.19578147   0.23308818
903.00   1.18982644   0.23386045
904.00   1.18386500   0.23463442
905.00   1.17789717   0.23541007
906.00   1.17192292   0.23618742
907.00   1.16594228   0.23696647
908.00   1.15995524   0.23774722
909.00   1.15396180   0.23852966
910.00   1.14796196   0.23931381
911.00   1.14195572   0.24009966
912.00   1.13594308   0.24088722
913.00   1.12992404   0.24167648
914.00   1.12389861   0.24246745
915.00   1.11786678   0.24326014
916.00   1.11182855   0.24405454
917.00   1.10578394   0.24485065
918.00   1.09973292   0.24564847
919.00   1.09367551   0.24644802
920.00   1.08761171   0.24724928
921.00   1.08154152   0.24805227
922.00   1.07546494   0.24885698
923.00   1.06938196   0.24966341
924.00   1.06329260   0.25047158
925.00   1.05719684   0.25128147
926.00   1.05109470   0.25209309
927.00   1.04498617   0.25290644
928.00   1.03887125   0.25372152
929.00   1.03274994   0.25453835
930.00   1.02662225   0.25535691
931.00   1.02048817   0.25617720
932.00   1.01434771   0.25699924
933.00   1.00820086   0.25782303
934.00   1.00204763   0.25864855
935.00   0.99588801   0.25947583
936.00   0.98972201   0.26030485
937.00   0.98354963   0.26113562
938.00   0.97737087   0.26196814
939.00   0.97118573   0.26280242
940.00   0.96499421   0.26363845
941.00   0.95879631   0.26447624
942.00   0.95259203   0.26531579
943.00   0.94638138   0.26615709
944.00   0.94016434   0.26700016
945.00   0.93394093   0.26784500
946.00   0.92771115   0.26869160
947.00   0.92147499   0.26953996
948.00   0.91523245   0.27039010
949.00   0.90898354   0.27124201
950.00   0.90272826   0.27209569
951.00   0.89646661   0.27295114
952.00   0.89019858   0.27380837
953.00   0.88392418   0.27466738
954.00   0.87764342   0.27552817
955.00   0.87135628   0.27639074
956.00   0.86506277   0.27725510
957.00   0.85876290   0.27812124
958.00   0.85245665   0.27898916
959.00   0.84614404   0.27985888
960.00   0.83982507   0.28073038
961.00   0.83349972   0.28160368
962.00   0.82716802   0.28247877
963.00   0.82082995   0.28335566
964.00   0.81448551   0.28423435
965.00   0.80813471   0.28511483
966.00   0.80177755   0.28599712
967.00   0.79541403   0.28688121
968.00   0.78904414   0.28776710
969.00   0.78266790   0.28865480
970.00   0.77628530   0.28954431
971.00   0.76989633   0.29043562
972.00   0.76350101   0.29132875
973.00   0.75709934   0.29222370
974.00   0.75069130   0.29312045
975.00   0.74427691   0.29401903
976.00   0.73785616   0.29491942
977.00   0.73142906   0.29582163
978.00   0.72499560   0.29672567
979.00   0.71855579   0.29763153
980.00   0.71210963   0.29853922
981.00   0.70565712   0.29944873
982.00   0.69919825   0.30036007
983.00   0.69273304   0.30127324
984.00   0.68626147   0.30218825
985.00   0.67978355   0.30310509
986.00   0.67329929   0.30402377
987.00   0.66680868   0.30494428
988.00   0.66031172   0.30586663
989.00   0.65380841   0.30679083
990.00   0.64729876   0.30771687
991.00   0.64078276   0.30864475
992.00   0.63426042   0.30957448
993.00   0.62773173   0.31050606
994.00   0.62119670   0.31143949
995.00   0.61465533   0.31237477
996.00   0.60810762   0.31331191
997.00   0.60155356   0.31425090
998.00   0.59499317   0.31519175
999.00   0.58842644   0.31613445
1000.00   0.58185336   0.31707902
1001.00   0.57527395   0.31802545
1002.00   0.56868820   0.31897375
1003.00   0.56209612   0.31992391
1004.00   0.55549770   0.32087593
1005.00   0.54889294   0.32182983
1006.00   0.54228185   0.32278560
1007.00   0.53566442   0.32374324
1008.00   0.52904066   0.32470276
1009.00   0.52241057   0.32566415
1010.00   0.51577415   0.32662742
1011.00   0.50913139   0.32759258
1012.00   0.50248231   0.32855961
1013.00   0.49582690   0.32952853
1014.00   0.48916515   0.33049933
1015.00   0.48249708   0.33147202
1016.00   0.47582268   0.33244659
1017.00   0.46914195   0.33342306
1018.00   0.46245490   0.33440142
1019.00   0.45576152   0.33538168
1020.00   0.44906182   0.33636383
1021.00   0.44235579   0.33734787
1022.00   0.43564344   0.33833382
1023.00   0.42892477   0.33932167
1024.00   0.42219977   0.34031142
1025.00   0.41546846   0.34130307
1026.00   0.40873082   0.34229663
1027.00   0.40198686   0.34329210
1028.00   0.39523659   0.34428948
1029.00   0.38847999   0.34528877
1030.00   0.38171708   0.34628997
1031.00   0.37494785   0.34729309
1032.00   0.36817231   0.34829813
1033.00   0.36139045   0.34930508
1034.00   0.35460228   0.35031395
1035.00   0.34780779   0.35132475
1036.00   0.34100698   0.35233746
1037.00   0.33419987   0.35335211
1038.00   0.32738644   0.35436868
1039.00   0.32056671   0.35538718
1040.00   0.31374066   0.35640761
1041.00   0.30690830   0.35742997
1042.00   0.30006963   0.35845427
1043.00   0.29322466   0.35948050
1044.00   0.28637338   0.36050867
1045.00   0.27951579   0.36153877
1046.00   0.27265189   0.36257082
1047.00   0.26578169   0.36360482
1048.00   0.25890519   0.36464075
1049.00   0.25202238   0.36567864
1050.00   0.24513327   0.36671847
1051.00   0.23823786   0.36776025
1052.00   0.23133614   0.36880398
1053.00   0.22442812   0.36984966
1054.00   0.21751381   0.37089730
1055.00   0.21059319   0.37194690
1056.00   0.20366628   0.37299845
1057.00   0.19673306   0.37405196
1058.00   0.18979355   0.37510744
1059.00   0.18284775   0.37616488
1060.00   0.17589564   0.37722428
1061.00   0.16893725   0.37828565
1062.00   0.16197256   0.37934899
1063.00   0.15500157   0.38041430
1064.00   0.14802429   0.38148159
1065.00   0.14104072   0.38255084
1066.00   0.13405086   0.38362207
1067.00   0.12705471   0.38469528
1068.00   0.12005227   0.38577047
1069.00   0.11304354   0.38684764
1070.00   0.10602852   0.38792679
1071.00   0.09900721   0.38900793
1072.00   0.09197962   0.39009105
1073.00   0.08494574   0.39117616
1074.00   0.07790558   0.39226325
1075.00   0.07085913   0.39335234
1076.00   0.06380639   0.39444343
1077.00   0.05674738   0.39553650
1078.00   0.04968208   0.39663158
1079.00   0.04261050   0.39772865
1080.00   0.03553264   0.39882772
1081.00   0.02844850   0.39992879
1082.00   0.02135808   0.40103186
1083.00   0.01426138   0.40213695
1084.00   0.00715840   0.40324403
1085.00   0.00004915   0.40435313
1086.00  -0.00706638   0.40546423
1087.00  -0.01418819   0.40657735
1088.00  -0.02131627   0.40769248
1089.00  -0.02845062   0.40880963
1090.00  -0.03559125   0.40992879
1091.00  -0.04273815   0.41104997
1092.00  -0.04989132   0.41217317
1093.00  -0.05705077   0.41329839
1094.00  -0.06421648   0.41442564
1095.00  -0.07138846   0.41555491
1096.00  -0.07856672   0.41668621
1097.00  -0.08575124   0.41781954
1098.00  -0.09294202   0.41895490
1099.00  -0.10013908   0.42009230
1100.00  -0.10734240   0.42123172
1101.00  -0.11455198   0.42237318
1102.00  -0.12176783   0.42351668
1103.00  -0.12898994   0.42466222
1104.00  -0.13621832   0.42580980
1105.00  -0.14345295   0.42695943
1106.00  -0.15069385   0.42811109
1107.00  -0.15794101   0.42926481
1108.00  -0.16519442   0.43042057
1109.00  -0.17245410   0.43157838
1110.00  -0.17972003   0.43273824
1111.00  -0.18699223   0.43390015
1112.00  -0.19427067   0.43506412
1113.00  -0.20155538   0.43623015
1114.00  -0.20884634   0.43739823
1115.00  -0.21614355   0.43856838
1116.00  -0.22344701   0.43974058
1117.00  -0.23075673   0.44091485
1118.00  -0.23807270   0.44209118
1119.00  -0.24539493   0.44326958
1120.00  -0.25272340   0.44445005
1121.00  -0.26005812   0.44563259
1122.00  -0.26739909   0.44681720
1123.00  -0.27474631   0.44800388
1124.00  -0.28209977   0.44919264
1125.00  -0.28945949   0.45038348
1126.00  -0.29682544   0.45157639
1127.00  -0.30419765   0.45277139
1128.00  -0.31157609   0.45396846
1129.00  -0.31896078   0.45516763
1130.00  -0.32635172   0.45636887
1131.00  -0.33374889   0.45757220
1132.00  -0.34115230   0.45877763
1133.00  -0.34856196   0.45998514
1134.00  -0.35597785   0.46119474
1135.00  -0.36339999   0.46240644
1136.00  -0.37082836   0.46362024
1137.00  -0.37826297   0.46483613
1138.00  -0.38570381   0.46605412
1139.00  -0.39315089   0.46727421
1140.00  -0.40060421   0.46849640
1141.00  -0.40806375   0.46972070
1142.00  -0.41552954   0.47094710
1143.00  -0.42300155   0.47217562
1144.00  -0.43047980   0.47340624
1145.00  -0.43796427   0.47463897
1146.00  -0.44545498   0.47587381
1147.00  -0.45295191   0.47711077
1148.00  -0.46045508   0.47834985
1149.00  -0.46796447   0.47959104
1150.00  -0.47548008   0.48083435
1151.00  -0.48300193   0.48207978
1152.00  -0.49053000   0.48332734
1153.00  -0.49806429   0.48457702
1154.00  -0.50560481   0.48582883
1155.00  -0.51315155   0.48708276
1156.00  -0.52070451   0.48833883
1157.00  -0.52826369   0.48959702
1158.00  -0.53582910   0.49085735
1159.00  -0.54340072   0.49211981
1160.00  -0.55097856   0.49338441
1161.00  -0.55856262   0.49465115
1162.00  -0.56615290   0.49592003
1163.00  -0.57374939   0.49719105
1164.00  -0.58135210   0.49846421
1165.00  -0.58896102   0.49973952
1166.00  -0.59657616   0.50101697
1167.00  -0.60419751   0.50229657
1168.00  -0.61182507   0.50357833
1169.00  -0.61945885   0.50486223
1170.00  -0.62709883   0.50614829
1171.00  -0.63474503   0.50743650
1172.00  -0.64239743   0.50872687
1173.00  -0.65005605   0.51001940
1174.00  -0.65772087   0.51131408
1175.00  -0.66539189   0.51261093
1176.00  -0.67306913   0.51390994
1177.00  -0.68075257   0.51521112
1178.00  -0.68844221   0.51651447
1179.00  -0.69613805   0.51781998
1180.00  -0.70384010   0.51912766
1181.00  -0.71154835   0.52043752
1182.00  -0.71926281   0.52174955
1183.00  -0.72698346   0.52306375
1184.00  -0.73471031   0.52438013
1185.00  -0.74244336   0.52569869
1186.00  -0.75018261   0.52701943
1187.00  -0.75792805   0.52834236
1188.00  -0.76567969   0.52966746
1189.00  -0.77343753   0.53099475
1190.00  -0.78120156   0.53232423
1191.00  -0.78897178   0.53365590
1192.00  -0.79674820   0.53498976
1193.00  -0.80453081   0.53632581
1194.00  -0.81231961   0.53766405
1195.00  -0.82011460   0.53900449
1196.00  -0.82791578   0.54034713
1197.00  -0.83572315   0.54169196
1198.00  -0.84353671   0.54303900
1199.00  -0.85135645   0.54438823
1200.00  -0.85918238   0.54573968
1201.00  -0.86701450   0.54709332
1202.00  -0.87485280   0.54844918
1203.00  -0.88269728   0.54980724
1204.00  -0.89054795   0.55116751
1205.00  -0.89840480   0.55253000
1206.00  -0.90626783   0.55389470
1207.00  -0.91413704   0.55526162
1208.00  -0.92201244   0.55663075
1209.00  -0.92989401   0.55800210
1210.00  -0.93778175   0.55937567
1211.00  -0.94567568   0.56075147
1212.00  -0.95357578   0.56212949
1213.00  -0.96148206   0.56350973
1214.00  -0.96939451   0.56489221
1215.00  -0.97731314   0.56627691
1216.00  -0.98523794   0.56766384
1217.00  -0.99316891   0.56905300
1218.00  -1.00110605   0.57044440
1219.00  -1.00904936   0.57183804
1220.00  -1.01699885   0.57323391
1221.00  -1.02495450   0.57463202
1222.00  -1.03291632   0.57603237
1223.00  -1.04088431   0.57743496
1224.00  -1.04885846   0.57883980
1225.00  -1.05683878   0.58024688
1226.00  -1.06482526   0.58165621
1227.00  -1.07281791   0.58306779
1228.00  -1.08081672   0.58448162
1229.00  -1.08882169   0.58589771
1230.00  -1.09683283   0.58731604
1231.00  -1.10485012   0.58873664
1232.00  -1.11287357   0.59015949
1233.00  -1.12090319   0.59158460
1234.00  -1.12893896   0.59301197
1235.00  -1.13698089   0.59444160
1236.00  -1.14502897   0.59587350
1237.00  -1.15308321   0.59730766
1238.00  -1.16114360   0.59874409
1239.00  -1.16921015   0.60018279
1240.00  -1.17728285   0.60162376
1241.00  -1.18536170   0.60306700
1242.00  -1.19344671   0.60451251
1243.00  -1.20153786   0.60596031
1244.00  -1.20963517   0.60741038
1245.00  -1.21773862   0.60886272
1246.00  -1.22584822   0.61031735
1247.00  -1.23396396   0.61177426
1248.00  -1.24208586   0.61323346
1249.00  -1.25021390   0.61469494
1250.00  -1.25834808   0.61615871
1251.00  -1.26648840   0.61762477
1252.00  -1.27463487   0.61909311
1253.00  -1.28278748   0.62056375
1254.00  -1.29094623   0.62203669
1255.00  -1.29911113   0.62351192
1256.00  -1.30728216   0.62498945
1257.00  -1.31545933   0.62646927
1258.00  -1.32364263   0.62795140
1259.00  -1.33183207   0.62943583
1260.00  -1.34002765   0.63092256
1261.00  -1.34822937   0.63241160
1262.00  -1.35643722   0.63390295
1263.00  -1.36465120   0.63539660
1264.00  -1.37287131   0.63689257
1265.00  -1.38109756   0.63839084
1266.00  -1.38932993   0.63989144
1267.00  -1.39756844   0.64139434
1268.00  -1.40581307   0.64289957
1269.00  -1.41406383   0.64440711
1270.00  -1.42232072   0.64591697
1271.00  -1.43058374   0.64742916
1272.00  -1.43885288   0.64894367
1273.00  -1.44712814   0.65046050
1274.00  -1.45540953   0.65197966
1275.00  -1.46369705   0.65350115
1276.00  -1.47199068   0.65502497
1277.00  -1.48029044   0.65655113
1278.00  -1.48859631   0.65807961
1279.00  -1.49690831   0.65961044
1280.00  -1.50522642   0.66114359
1281.00  -1.51355065   0.66267909
1282.00  -1.52188100   0.66421693
1283.00  -1.53021746   0.66575711
1284.00  -1.53856004   0.66729963
1285.00  -1.54690873   0.66884450
1286.00  -1.55526354   0.67039171
1287.00  -1.56362446   0.67194128
1288.00  -1.57199149   0.67349319
1289.00  -1.58036463   0.67504746
1290.00  -1.58874388   0.67660408
1291.00  -1.59712924   0.67816305
1292.00  -1.60552070   0.67972438
1293.00  -1.61391828   0.68128807
1294.00  -1.62232196   0.68285412
1295.00  -1.63073174   0.68442253
1296.00  -1.63914763   0.68599330
1297.00  -1.64756963   0.68756644
1298.00  -1.65599772   0.68914195
1299.00  -1.66443192   0.69071982
1300.00  -1.67287222   0.69230006
1301.00  -1.68131862   0.69388268
1302.00  -1.68977112   0.69546767
1303.00  -1.69822972   0.69705503
1304.00  -1.70669441   0.69864477
1305.00  -1.71516520   0.70023688
1306.00  -1.72364209   0.70183138
1307.00  -1.73212507   0.70342826
1308.00  -1.74061414   0.70502752
1309.00  -1.74910931   0.70662917
1310.00  -1.75761057   0.70823320
1311.00  -1.76611792   0.70983962
1312.00  -1.77463136   0.71144843
1313.00  -1.78315089   0.71305963
1314.00  -1.79167651   0.71467322
1315.00  -1.80020822   0.71628921
1316.00  -1.80874601   0.71790759
1317.00  -1.81728989   0.71952837
1318.00  -1.82583986   0.72115155
1319.00  -1.83439590   0.72277713
1320.00  -1.84295804   0.72440511
1321.00  -1.85152625   0.72603550
1322.00  -1.86010054   0.72766830
1323.00  -1.86868092   0.72930350
1324.00  -1.87726738   0.73094111
1325.00  -1.88585991   0.73258113
1326.00  -1.89445852   0.73422356
1327.00  -1.90306321   0.73586841
1328.00  -1.91167398   0.73751567
1329.00  -1.92029081   0.73916535
1330.00  -1.92891373   0.74081745
1331.00  -1.93754272   0.74247197
1332.00  -1.94617778   0.74412891
1333.00  -1.95481891   0.74578827
1334.00  -1.96346611   0.74745006
1335.00  -1.97211938   0.74911428
1336.00  -1.98077872   0.75078093
1337.00  -1.98944413   0.75245000
1338.00  -1.99811560   0.75412151
1339.00  -2.00679314   0.75579545
1340.00  -2.01547675   0.75747183
1341.00  -2.02416642   0.75915064
1342.00  -2.03286216   0.76083189
1343.00  -2.04156395   0.76251558
1344.00  -2.05027181   0.76420171
1345.00  -2.05898573   0.76589029
1346.00  -2.06770571   0.76758131
1347.00  -2.07643174   0.76927478
1348.00  -2.08516384   0.77097069
1349.00  -2.09390199   0.77266906
1350.00  -2.10264620   0.77436987
1351.00  -2.11139646   0.77607314
1352.00  -2.12015278   0.77777887
1353.00  -2.12891515   0.77948705
1354.00  -2.13768357   0.78119768
1355.00  -2.14645805   0.78291078
1356.00  -2.15523857   0.78462634
1357.00  -2.16402515   0.78634436
1358.00  -2.17281777   0.78806484
1359.00  -2.18161644   0.78978779
1360.00  -2.19042116   0.79151321
1361.00  -2.19923193   0.79324110
1362.00  -2.20804874   0.79497146
1363.00  -2.21687159   0.79670429
1364.00  -2.22570049   0.79843959
1365.00  -2.23453543   0.80017737
1366.00  -2.24337641   0.80191762
1367.00  -2.25222343   0.80366036
1368.00  -2.26107649   0.80540558
1369.00  -2.26993559   0.80715327
1370.00  -2.27880073   0.80890345
1371.00  -2.28767190   0.81065612
1372.00  -2.29654911   0.81241127
1373.00  -2.30543235   0.81416891
1374.00  -2.31432163   0.81592905
1375.00  -2.32321695   0.81769167
1376.00  -2.33211829   0.81945679
1377.00  -2.34102567   0.82122440
1378.00  -2.34993907   0.82299450
1379.00  -2.35885851   0.82476711
1380.00  -2.36778397   0.82654221
1381.00  -2.37671546   0.82831982
1382.00  -2.38565298   0.83009993
1383.00  -2.39459652   0.83188254
1384.00  -2.40354609   0.83366766
1385.00  -2.41250169   0.83545529
1386.00  -2.42146330   0.83724543
1387.00  -2.43043094   0.83903808
1388.00  -2.43940460   0.84083324
1389.00  -2.44838427   0.84263091
1390.00  -2.45736997   0.84443110
1391.00  -2.46636169   0.84623381
1392.00  -2.47535942   0.84803903
1393.00  -2.48436317   0.84984678
1394.00  -2.49337293   0.85165705
1395.00  -2.50238871   0.85346984
1396.00  -2.51141051   0.85528516
1397.00  -2.52043831   0.85710300
1398.00  -2.52947213   0.85892338
1399.00  -2.53851196   0.86074628
1400.00  -2.54755780   0.86257172
1401.00  -2.55660964   0.86439968
1402.00  -2.56566750   0.86623019
1403.00  -2.57473136   0.86806323
1404.00  -2.58380123   0.86989880
1405.00  -2.59287710   0.87173692
1406.00  -2.60195898   0.87357758
1407.00  -2.61104686   0.87542078
1408.00  -2.62014074   0.87726653
1409.00  -2.62924062   0.87911482
1410.00  -2.63834651   0.88096566
1411.00  -2.64745839   0.88281905
1412.00  -2.65657627   0.88467499
1413.00  -2.66570015   0.88653348
1414.00  -2.67483003   0.88839452
1415.00  -2.68396590   0.89025813
1416.00  -2.69310777   0.89212428
1417.00  -2.70225563   0.89399300
1418.00  -2.71140948   0.89586428
1419.00  -2.72056932   0.89773812
1420.00  -2.72973516   0.89961452
1421.00  -2.73890699   0.90149349
1422.00  -2.74808480   0.90337503
1423.00  -2.75726860   0.90525913
1424.00  -2.76645839   0.90714580
1425.00  -2.77565417   0.90903505
1426.00  -2.78485593   0.91092687
1427.00  -2.79406368   0.91282126
1428.00  -2.80327741   0.91471823
1429.00  -2.81249712   0.91661777
1430.00  -2.82172281   0.91851990
1431.00  -2.83095448   0.92042461
1432.00  -2.84019213   0.92233190
1433.00  -2.84943577   0.92424177
1434.00  -2.85868537   0.92615423
1435.00  -2.86794096   0.92806928
1436.00  -2.87720252   0.92998691
1437.00  -2.88647006   0.93190714
1438.00  -2.89574357   0.93382996
1439.00  -2.90502305   0.93575537
1440.00  -2.91430850   0.93768338
1441.00  -2.92359993   0.93961398
1442.00  -2.93289732   0.94154718
1443.00  -2.94220068   0.94348299
1444.00  -2.95151001   0.94542139
1445.00  -2.96082531   0.94736240
1446.00  -2.97014658   0.94930601
1447.00  -2.97947381   0.95125223
1448.00  -2.98880700   0.95320105
1449.00  -2.99814616   0.95515249
1450.00  -3.00749128   0.95710653
1451.00  -3.01684236   0.95906319
1452.00  -3.02619940   0.96102247
1453.00  -3.03556239   0.96298435
1454.00  -3.04493135   0.96494886
1455.00  -3.05430627   0.96691599
1456.00  -3.06368714   0.96888573
1457.00  -3.07307397   0.97085810
1458.00  -3.08246675   0.97283309
1459.00  -3.09186548   0.97481071
1460.00  -3.10127017   0.97679095
1461.00  -3.11068081   0.97877382
1462.00  -3.12009740   0.98075932
1463.00  -3.12951993   0.98274745
1464.00  -3.13894842   0.98473822
1465.00  -3.14838286   0.98673162
1466.00  -3.15782324   0.98872765
1467.00  -3.16726956   0.99072633
1468.00  -3.17672184   0.99272764
1469.00  -3.18618005   0.99473160
1470.00  -3.19564421   0.99673819
1471.00  -3.20511431   0.99874743
1472.00  -3.21459035   1.00075932
1473.00  -3.22407233   1.00277385
1474.00  -3.23356025   1.00479103
1475.00  -3.24305411   1.00681087
1476.00  -3.25255390   1.00883335
1477.00  -3.26205963   1.01085849
1478.00  -3.27157129   1.01288628
1479.00  -3.28108889   1.01491673
1480.00  -3.29061242   1.01694983
1481.00  -3.30014189   1.01898560
1482.00  -3.30967728   1.02102403
1483.00  -3.31921861   1.02306512
1484.00  -3.32876586   1.02510887
1485.00  -3.33831904   1.02715529
1486.00  -3.34787815   1.02920438
1487.00  -3.35744318   1.03125614
1488.00  -3.36701414   1.03331057
1489.00  -3.37659103   1.03536767
1490.00  -3.38617383   1.03742744
1491.00  -3.39576256   1.03948989
1492.00  -3.40535721   1.04155501
1493.00  -3.41495778   1.04362282
1494.00  -3.42456427   1.04569330
1495.00  -3.43417667   1.04776646
1496.00  -3.44379500   1.04984231
1497.00  -3.45341924   1.05192084
1498.00  -3.46304939   1.05400206
1499.00  -3.47268546   1.05608597
1500.00  -3.48232745   1.05817256
1501.00  -3.49197534   1.06026185
1502.00  -3.50162915   1.06235383
1503.00  -3.51128886   1.06444850
1504.00  -3.52095449   1.06654587
1505.00  -3.53062602   1.06864593
1506.00  -3.54030346   1.07074870
1507.00  -3.54998681   1.07285416
1508.00  -3.55967606   1.07496233
1509.00  -3.56937122   1.07707319
1510.00  -3.57907228   1.07918677
1511.00  -3.58877924   1.08130305
1512.00  -3.59849210   1.08342203
1513.00  -3.60821086   1.08554373
1514.00  -3.61793552   1.08766814
1515.00  -3.62766609   1.08979526
1516.00  -3.63740254   1.09192509
1517.00  -3.64714490   1.09405764
1518.00  -3.65689315   1.09619290
1519.00  -3.66664729   1.09833089
1520.00  -3.67640732   1.10047159
1521.00  -3.68617325   1.10261502
1522.00  -3.69594507   1.10476117
1523.00  -3.70572278   1.10691005
1524.00  -3.71550638   1.10906165
1525.00  -3.72529587   1.11121598
1526.00  -3.73509124   1.11337304
1527.00  -3.74489250   1.11553282
1528.00  -3.75469965   1.11769535
1529.00  -3.76451268   1.11986060
1530.00  -3.77433159   1.12202859
1531.00  -3.78415638   1.12419932
1532.00  -3.79398706   1.12637279
1533.00  -3.80382362   1.12854900
1534.00  -3.81366605   1.13072795
1535.00  -3.82351436   1.13290964
1536.00  -3.83336856   1.13509408
1537.00  -3.84322862   1.13728126
1538.00  -3.85309456   1.13947119
1539.00  -3.86296638   1.14166387
1540.00  -3.87284407   1.14385931
1541.00  -3.88272763   1.14605749
1542.00  -3.89261706   1.14825843
1543.00  -3.90251236   1.15046212
1544.00  -3.91241353   1.15266858
1545.00  -3.92232057   1.15487778
1546.00  -3.93223347   1.15708975
1547.00  -3.94215224   1.15930449
1548.00  -3.95207688   1.16152198
1549.00  -3.96200738   1.16374224
1550.00  -3.97194374   1.16596527
1551.00  -3.98188596   1.16819106
1552.00  -3.99183405   1.17041962
1553.00  -4.00178799   1.17265096
1554.00  -4.01174780   1.17488506
1555.00  -4.02171346   1.17712195
1556.00  -4.03168498   1.17936160
1557.00  -4.04166235   1.18160403
1558.00  -4.05164558   1.18384925
1559.00  -4.06163466   1.18609724
1560.00  -4.07162959   1.18834801
1561.00  -4.08163038   1.19060157
1562.00  -4.09163702   1.19285791
1563.00  -4.10164950   1.19511703
1564.00  -4.11166784   1.19737895
1565.00  -4.12169202   1.19964365
1566.00  -4.13172205   1.20191114
1567.00  -4.14175792   1.20418143
1568.00  -4.15179964   1.20645451
1569.00  -4.16184720   1.20873039
1570.00  -4.17190061   1.21100906
1571.00  -4.18195985   1.21329053
1572.00  -4.19202494   1.21557480
1573.00  -4.20209586   1.21786187
1574.00  -4.21217263   1.22015175
1575.00  -4.22225523   1.22244442
1576.00  -4.23234366   1.22473991
1577.00  -4.24243793   1.22703820
1578.00  -4.25253804   1.22933930
1579.00  -4.26264398   1.23164321
1580.00  -4.27275575   1.23394994
1581.00  -4.28287335   1.23625948
1582.00  -4.29299678   1.23857183
1583.00  -4.30312604   1.24088700
1584.00  -4.31326113   1.24320498
1585.00  -4.32340205   1.24552579
1586.00  -4.33354879   1.24784942
1587.00  -4.34370135   1.25017587
1588.00  -4.35385974   1.25250514
1589.00  -4.36402395   1.25483724
1590.00  -4.37419399   1.25717217
1591.00  -4.38436984   1.25950992
1592.00  -4.39455152   1.26185051
1593.00  -4.40473901   1.26419392
1594.00  -4.41493232   1.26654017
1595.00  -4.42513145   1.26888926
1596.00  -4.43533639   1.27124118
1597.00  -4.44554714   1.27359594
1598.00  -4.45576371   1.27595353
1599.00  -4.46598610   1.27831397
1600.00  -4.47621429   1.28067725
1601.00  -4.48644829   1.28304338
1602.00  -4.49668810   1.28541235
1603.00  -4.50693372   1.28778416
1604.00  -4.51718515   1.29015883
1605.00  -4.52744238   1.29253634
1606.00  -4.53770542   1.29491671
1607.00  -4.54797426   1.29729992
1608.00  -4.55824891   1.29968600
1609.00  -4.56852936   1.30207492
1610.00  -4.57881560   1.30446671
1611.00  -4.58910765   1.30686135
1612.00  -4.59940550   1.30925886
1613.00  -4.60970914   1.31165922
1614.00  -4.62001858   1.31406245
1615.00  -4.63033382   1.31646855
1616.00  -4.64065485   1.31887751
1617.00  -4.65098167   1.32128933
1618.00  -4.66131429   1.32370403
1619.00  -4.67165269   1.32612160
1620.00  -4.68199689   1.32854204
1621.00  -4.69234688   1.33096535
1622.00  -4.70270265   1.33339154
1623.00  -4.71306421   1.33582061
1624.00  -4.72343156   1.33825255
1625.00  -4.73380469   1.34068737
1626.00  -4.74418361   1.34312508
1627.00  -4.75456831   1.34556567
1628.00  -4.76495879   1.34800914
1629.00  -4.77535505   1.35045549
1630.00  -4.78575709   1.35290474
1631.00  -4.79616491   1.35535687
1632.00  -4.80657851   1.35781189
1633.00  -4.81699788   1.36026981
1634.00  -4.82742303   1.36273062
1635.00  -4.83785395   1.36519432
1636.00  -4.84829065   1.36766092
1637.00  -4.85873312   1.37013041
1638.00  -4.86918136   1.37260281
1639.00  -4.87963537   1.37507810
1640.00  -4.89009515   1.37755630
1641.00  -4.90056069   1.38003740
1642.00  -4.91103201   1.38252141
1643.00  -4.92150909   1.38500832
1644.00  -4.93199193   1.38749814
1645.00  -4.94248054   1.38999087
1646.00  -4.95297491   1.39248652
1647.00  -4.96347504   1.39498507
1648.00  -4.97398094   1.39748654
1649.00  -4.98449259   1.39999092
1650.00  -4.99501000   1.40249822
1651.00  -5.00553317   1.40500844
1652.00  -5.01606209   1.40752158
1653.00  -5.02659677   1.41003764
1654.00  -5.03713721   1.41255662
1655.00  -5.04768339   1.41507853
1656.00  -5.05823533   1.41760336
1657.00  -5.06879302   1.42013112
1658.00  -5.07935646   1.42266181
1659.00  -5.08992565   1.42519543
1660.00  -5.10050058   1.42773198
1661.00  -5.11108126   1.43027146
1662.00  -5.12166769   1.43281388
1663.00  -5.13225986   1.43535923
1664.00  -5.14285778   1.43790752
1665.00  -5.15346143   1.44045876
1666.00  -5.16407083   1.44301293
1667.00  -5.17468597   1.44557004
1668.00  -5.18530685   1.44813010
1669.00  -5.19593346   1.45069310
1670.00  -5.20656582   1.45325905
1671.00  -5.21720390   1.45582794
1672.00  -5.22784773   1.45839979
1673.00  -5.23849728   1.46097459
1674.00  -5.24915257   1.46355234
1675.00  -5.25981359   1.46613304
1676.00  -5.27048034   1.46871670
1677.00  -5.28115282   1.47130331
1678.00  -5.29183103   1.47389289
1679.00  -5.30251497   1.47648542
1680.00  -5.31320463   1.47908091
1681.00  -5.32390001   1.48167937
1682.00  -5.33460112   1.48428079
1683.00  -5.34530796   1.48688518
1684.00  -5.35602051   1.48949253
1685.00  -5.36673879   1.49210285
1686.00  -5.37746278   1.49471614
1687.00  -5.38819249   1.49733241
1688.00  -5.39892792   1.49995164
1689.00  -5.40966907   1.50257385
1690.00  -5.42041593   1.50519904
1691.00  -5.43116851   1.50782720
1692.00  -5.44192680   1.51045834
1693.00  -5.45269080   1.51309247
1694.00  -5.46346051   1.51572957
1695.00  -5.47423593   1.51836966
1696.00  -5.48501706   1.52101273
1697.00  -5.49580390   1.52365879
1698.00  -5.50659644   1.52630783
1699.00  -5.51739469   1.52895986
1700.00  -5.52819865   1.53161489
1701.00  -5.53900830   1.53427290
1702.00  -5.54982366   1.53693391
1703.00  -5.56064472   1.53959792
1704.00  -5.57147148   1.54226492
1705.00  -5.58230394   1.54493492
1706.00  -5.59314209   1.54760791
1707.00  -5.60398595   1.55028391
1708.00  -5.61483550   1.55296291
1709.00  -5.62569074   1.55564492
1710.00  -5.63655167   1.55832992
1711.00  -5.64741830   1.56101794
1712.00  -5.65829062   1.56370896
1713.00  -5.66916863   1.56640299
1714.00  -5.68005233   1.56910004
1715.00  -5.69094171   1.57180009
1716.00  -5.70183679   1.57450316
1717.00  -5.71273754   1.57720924
1718.00  -5.72364399   1.57991834
1719.00  -5.73455611   1.58263046
1720.00  -5.74547392   1.58534560
1721.00  -5.75639741   1.58806376
1722.00  -5.76732658   1.59078494
1723.00  -5.77826143   1.59350915
1724.00  -5.78920195   1.59623638
1725.00  -5.80014816   1.59896663
1726.00  -5.81110003   1.60169992
1727.00  -5.82205759   1.60443623
1728.00  -5.83302081   1.60717558
1729.00  -5.84398971   1.60991795
1730.00  -5.85496428   1.61266337
1731.00  -5.86594452   1.61541181
1732.00  -5.87693043   1.61816330
1733.00  -5.88792201   1.62091782
1734.00  -5.89891925   1.62367538
1735.00  -5.90992216   1.62643598
1736.00  -5.92093074   1.62919963
1737.00  -5.93194498   1.63196632
1738.00  -5.94296487   1.63473605
1739.00  -5.95399044   1.63750884
1740.00  -5.96502166   1.64028467
1741.00  -5.97605854   1.64306355
1742.00  -5.98710108   1.64584548
1743.00  -5.99814927   1.64863046
1744.00  -6.00920312   1.65141850
1745.00  -6.02026263   1.65420959
1746.00  -6.03132778   1.65700374
1747.00  -6.04239860   1.65980095
1748.00  -6.05347506   1.66260122
1749.00  -6.06455717   1.66540455
1750.00  -6.07564493   1.66821094
1751.00  -6.08673834   1.67102040
1752.00  -6.09783740   1.67383292
1753.00  -6.10894210   1.67664851
1754.00  -6.12005244   1.67946716
1755.00  -6.13116843   1.68228889
1756.00  -6.14229006   1.68511369
1757.00  -6.15341734   1.68794156
1758.00  -6.16455025   1.69077251
1759.00  -6.17568880   1.69360653
1760.00  -6.18683299   1.69644362
1761.00  -6.19798281   1.69928380
1762.00  -6.20913828   1.70212706
1763.00  -6.22029937   1.70497339
1764.00  -6.23146610   1.70782281
1765.00  -6.24263846   1.71067532
1766.00  -6.25381645   1.71353090
1767.00  -6.26500008   1.71638958
1768.00  -6.27618933   1.71925135
1769.00  -6.28738420   1.72211620
1770.00  -6.29858471   1.72498415
1771.00  -6.30979084   1.72785518
1772.00  -6.32100259   1.73072932
1773.00  -6.33221997   1.73360654
1774.00  -6.34344297   1.73648687
1775.00  -6.35467159   1.73937029
1776.00  -6.36590583   1.74225681
1777.00  -6.37714569   1.74514644
1778.00  -6.38839117   1.74803916
1779.00  -6.39964226   1.75093499
1780.00  -6.41089897   1.75383393
1781.00  -6.42216129   1.75673597
1782.00  -6.43342923   1.75964112
1783.00  -6.44470277   1.76254938
1784.00  -6.45598193   1.76546075
1785.00  -6.46726670   1.76837524
1786.00  -6.47855708   1.77129284
1787.00  -6.48985306   1.77421355
1788.00  -6.50115465   1.77713738
1789.00  -6.51246184   1.78006433
1790.00  -6.52377464   1.78299440
1791.00  -6.53509304   1.78592758
1792.00  -6.54641704   1.78886390
1793.00  -6.55774665   1.79180333
1794.00  -6.56908185   1.79474589
1795.00  -6.58042265   1.79769158
1796.00  -6.59176905   1.80064039
1797.00  -6.60312104   1.80359234
1798.00  -6.61447863   1.80654741
1799.00  -6.62584181   1.80950562
1800.00  -6.63721059   1.81246696
1801.00  -6.64858495   1.81543144
1802.00  -6.65996491   1.81839905
1803.00  -6.67135045   1.82136980
1804.00  -6.68274159   1.82434369
1805.00  -6.69413831   1.82732072
1806.00  -6.70554061   1.83030089
1807.00  -6.71694850   1.83328421
1808.00  -6.72836198   1.83627067
1809.00  -6.73978103   1.83926027
1810.00  -6.75120567   1.84225303
1811.00  -6.76263589   1.84524893
1812.00  -6.77407168   1.84824799
1813.00  -6.78551305   1.85125019
1814.00  -6.79696000   1.85425555
1815.00  -6.80841253   1.85726407
1816.00  -6.81987063   1.86027574
1817.00  -6.83133430   1.86329057
1818.00  -6.84280355   1.86630855
1819.00  -6.85427836   1.86932970
1820.00  -6.86575875   1.87235401
1821.00  -6.87724470   1.87538148
1822.00  -6.88873622   1.87841212
1823.00  -6.90023331   1.88144592
1824.00  -6.91173596   1.88448289
1825.00  -6.92324417   1.88752303
1826.00  -6.93475795   1.89056634
1827.00  -6.94627729   1.89361282
1828.00  -6.95780219   1.89666247
1829.00  -6.96933265   1.89971530
1830.00  -6.98086867   1.90277130
1831.00  -6.99241024   1.90583048
1832.00  -7.00395738   1.90889284
1833.00  -7.01551006   1.91195837
1834.00  -7.02706830   1.91502709
1835.00  -7.03863209   1.91809900
1836.00  -7.05020143   1.92117408
1837.00  -7.06177632   1.92425235
1838.00  -7.07335676   1.92733381
1839.00  -7.08494275   1.93041846
1840.00  -7.09653429   1.93350629
1841.00  -7.10813137   1.93659732
1842.00  -7.11973399   1.93969154
1843.00  -7.13134216   1.94278895
1844.00  -7.14295587   1.94588956
1845.00  -7.15457512   1.94899336
1846.00  -7.16619991   1.95210036
1847.00  -7.17783024   1.95521056
1848.00  -7.18946611   1.95832397
1849.00  -7.20110751   1.96144057
1850.00  -7.21275445   1.96456038
1851.00  -7.22440692   1.96768339
1852.00  -7.23606492   1.97080961
1853.00  -7.24772846   1.97393903
1854.00  -7.25939752   1.97707167
1855.00  -7.27107212   1.98020751
1856.00  -7.28275224   1.98334657
1857.00  -7.29443789   1.98648884
1858.00  -7.30612906   1.98963432
1859.00  -7.31782576   1.99278302
1860.00  -7.32952798   1.99593494
1861.00  -7.34123573   1.99909007
1862.00  -7.35294899   2.00224843
1863.00  -7.36466778   2.00541000
1864.00  -7.37639208   2.00857480
1865.00  -7.38812190   2.01174282
1866.00  -7.39985724   2.01491407
1867.00  -7.41159809   2.01808855
1868.00  -7.42334446   2.02126625
1869.00  -7.43509634   2.02444718
1870.00  -7.44685373   2.02763135
1871.00  -7.45861663   2.03081874
1872.00  -7.47038504   2.03400937
1873.00  -7.48215896   2.03720324
1874.00  -7.49393839   2.04040034
1875.00  -7.50572332   2.04360068
1876.00  -7.51751376   2.04680426
1877.00  -7.52930970   2.05001107
1878.00  -7.54111114   2.05322114
1879.00  -7.55291808   2.05643444
1880.00  -7.56473052   2.05965099
1881.00  -7.57654847   2.06287078
1882.00  -7.58837190   2.06609382
1883.00  -7.60020084   2.06932011
1884.00  -7.61203527   2.07254965
1885.00  -7.62387520   2.07578244
1886.00  -7.63572061   2.07901849
1887.00  -7.64757152   2.08225779
1888.00  -7.65942792   2.08550034
1889.00  -7.67128981   2.08874615
1890.00  -7.68315719   2.09199522
1891.00  -7.69503005   2.09524755
1892.00  -7.70690840   2.09850314
1893.00  -7.71879223   2.10176199
1894.00  -7.73068155   2.10502411
1895.00  -7.74257635   2.10828949
1896.00  -7.75447663   2.11155813
1897.00  -7.76638239   2.11483005
1898.00  -7.77829363   2.11810523
1899.00  -7.79021035   2.12138368
1900.00  -7.80213254   2.12466541
1901.00  -7.81406021   2.12795041
1902.00  -7.82599335   2.13123868
1903.00  -7.83793197   2.13453023
1904.00  -7.84987605   2.13782506
1905.00  -7.86182561   2.14112316
1906.00  -7.87378064   2.14442455
1907.00  -7.88574113   2.14772921
1908.00  -7.89770709   2.15103716
1909.00  -7.90967852   2.15434840
1910.00  -7.92165541   2.15766291
1911.00  -7.93363776   2.16098072
1912.00  -7.94562558   2.16430181
1913.00  -7.95761885   2.16762619
1914.00  -7.96961759   2.17095387
1915.00  -7.98162179   2.17428483
1916.00  -7.99363144   2.17761909
1917.00  -8.00564655   2.18095664
1918.00  -8.01766711   2.18429749
1919.00  -8.02969313   2.18764164
1920.00  -8.04172460   2.19098908
1921.00  -8.05376152   2.19433983
1922.00  -8.06580389   2.19769388
1923.00  -8.07785171   2.20105123
1924.00  -8.08990498   2.20441188
1925.00  -8.10196369   2.20777584
1926.00  -8.11402785   2.21114310
1927.00  -8.12609745   2.21451368
1928.00  -8.13817250   2.21788756
1929.00  -8.15025299   2.22126476
1930.00  -8.16233892   2.22464526
1931.00  -8.17443029   2.22802909
1932.00  -8.18652709   2.23141622
1933.00  -8.19862934   2.23480667
1934.00  -8.21073702   2.23820044
1935.00  -8.22285013   2.24159753
1936.00  -8.23496868   2.24499794
1937.00  -8.24709266   2.24840167
1938.00  -8.25922207   2.25180872
1939.00  -8.27135691   2.25521910
1940.00  -8.28349718   2.25863280
1941.00  -8.29564287   2.26204983
1942.00  -8.30779400   2.26547019
1943.00  -8.31995054   2.26889387
1944.00  -8.33211252   2.27232089
1945.00  -8.34427991   2.27575124
1946.00  -8.35645273   2.27918493
1947.00  -8.36863096   2.28262195
1948.00  -8.38081462   2.28606230
1949.00  -8.39300369   2.28950599
1950.00  -8.40519818   2.29295303
1951.00  -8.41739808   2.29640340
1952.00  -8.42960340   2.29985711
1953.00  -8.44181413   2.30331417
1954.00  -8.45403027   2.30677457
1955.00  -8.46625183   2.31023831
1956.00  -8.47847879   2.31370541
1957.00  -8.49071116   2.31717585
1958.00  -8.50294894   2.32064964
1959.00  -8.51519212   2.32412678
1960.00  -8.52744071   2.32760727
1961.00  -8.53969470   2.33109112
1962.00  -8.55195410   2.33457832
1963.00  -8.56421889   2.33806888
1964.00  -8.57648909   2.34156279
1965.00  -8.58876468   2.34506007
1966.00  -8.60104567   2.34856070
1967.00  -8.61333206   2.35206469
1968.00  -8.62562384   2.35557205
1969.00  -8.63792101   2.35908277
1970.00  -8.65022358   2.36259686
1971.00  -8.66253154   2.36611432
1972.00  -8.67484488   2.36963514
1973.00  -8.68716362   2.37315933
1974.00  -8.69948775   2.37668689
1975.00  -8.71181726   2.38021782
1976.00  -8.72415215   2.38375213
1977.00  -8.73649243   2.38728981
1978.00  -8.74883809   2.39083087
1979.00  -8.76118914   2.39437530
1980.00  -8.77354556   2.39792312
1981.00  -8.78590737   2.40147431
1982.00  -8.79827455   2.40502888
1983.00  -8.81064710   2.40858684
1984.00  -8.82302504   2.41214818
1985.00  -8.83540834   2.41571291
1986.00  -8.84779702   2.41928102
1987.00  -8.86019108   2.42285252
1988.00  -8.87259050   2.42642740
1989.00  -8.88499529   2.43000568
1990.00  -8.89740545   2.43358735
1991.00  -8.90982098   2.43717242
1992.00  -8.92224187   2.44076087
1993.00  -8.93466812   2.44435273
1994.00  -8.94709974   2.44794798
1995.00  -8.95953673   2.45154662
1996.00  -8.97197907   2.45514867
1997.00  -8.98442677   2.45875412
1998.00  -8.99687983   2.46236297
1999.00  -9.00933825   2.46597522
2000.00  -9.02180202   2.46959088
