wavelength(nm)         real         imag
200.00   3.74345868   0.00299179
201.00   3.74188993   0.00303688
202.00   3.74031337   0.00308242
203.00   3.73872900   0.00312841
204.00   3.73713681   0.00317486
205.00   3.73553682   0.00322177
206.00   3.73392901   0.00326914
207.00   3.73231339   0.00331696
208.00   3.73068995   0.00336526
209.00   3.72905871   0.00341401
210.00   3.72741965   0.00346324
211.00   3.72577279   0.00351294
212.00   3.72411811   0.00356311
213.00   3.72245562   0.00361375
214.00   3.72078533   0.00366488
215.00   3.71910722   0.00371648
216.00   3.71742130   0.00376856
217.00   3.71572757   0.00382113
218.00   3.71402603   0.00387419
219.00   3.71231668   0.00392773
220.00   3.71059953   0.00398177
221.00   3.70887456   0.00403629
222.00   3.70714178   0.00409132
223.00   3.70540120   0.00414684
224.00   3.70365281   0.00420286
225.00   3.70189661   0.00425938
226.00   3.70013260   0.00431641
227.00   3.69836078   0.00437394
228.00   3.69658115   0.00443198
229.00   3.69479372   0.00449053
230.00   3.69299848   0.00454960
231.00   3.69119543   0.00460918
232.00   3.68938458   0.00466928
233.00   3.68756592   0.00472990
234.00   3.68573945   0.00479104
235.00   3.68390517   0.00485271
236.00   3.68206309   0.00491490
237.00   3.68021320   0.00497762
238.00   3.67835551   0.00504087
239.00   3.67649001   0.00510466
240.00   3.67461671   0.00516898
241.00   3.67273560   0.00523384
242.00   3.67084669   0.00529924
243.00   3.66894997   0.00536518
244.00   3.66704544   0.00543166
245.00   3.66513311   0.00549870
246.00   3.66321298   0.00556628
247.00   3.66128505   0.00563441
248.00   3.65934931   0.00570310
249.00   3.65740576   0.00577234
250.00   3.65545441   0.00584214
251.00   3.65349526   0.00591250
252.00   3.65152831   0.00598342
253.00   3.64955355   0.00605490
254.00   3.64757100   0.00612696
255.00   3.64558064   0.00619958
256.00   3.64358247   0.00627277
257.00   3.64157651   0.00634654
258.00   3.63956274   0.00642088
259.00   3.63754117   0.00649580
260.00   3.63551180   0.00657130
261.00   3.63347464   0.00664739
262.00   3.63142966   0.00672406
263.00   3.62937689   0.00680131
264.00   3.62731632   0.00687915
265.00   3.62524795   0.00695759
266.00   3.62317178   0.00703662
267.00   3.62108781   0.00711624
268.00   3.61899604   0.00719646
269.00   3.61689647   0.00727729
270.00   3.61478910   0.00735871
271.00   3.61267393   0.00744074
272.00   3.61055097   0.00752338
273.00   3.60842020   0.00760663
274.00   3.60628164   0.00769048
275.00   3.60413528   0.00777495
276.00   3.60198112   0.00786004
277.00   3.59981917   0.00794575
278.00   3.59764942   0.00803207
279.00   3.59547187   0.00811902
280.00   3.59328652   0.00820659
281.00   3.59109338   0.00829479
282.00   3.58889245   0.00838362
283.00   3.58668371   0.00847308
284.00   3.58446718   0.00856317
285.00   3.58224286   0.00865390
286.00   3.58001074   0.00874527
287.00   3.57777082   0.00883728
288.00   3.57552312   0.00892993
289.00   3.57326761   0.00902323
290.00   3.57100431   0.00911717
291.00   3.56873322   0.00921176
292.00   3.56645434   0.00930701
293.00   3.56416766   0.00940291
294.00   3.56187319   0.00949946
295.00   3.55957092   0.00959667
296.00   3.55726087   0.00969454
297.00   3.55494302   0.00979308
298.00   3.55261737   0.00989228
299.00   3.55028394   0.00999214
300.00   3.54794271   0.01009268
301.00   3.54559370   0.01019389
302.00   3.54323689   0.01029577
303.00   3.54087229   0.01039833
304.00   3.53849990   0.01050156
305.00   3.53611972   0.01060548
306.00   3.53373175   0.01071008
307.00   3.53133599   0.01081536
308.00   3.52893244   0.01092133
309.00   3.52652110   0.01102799
310.00   3.52410197   0.01113534
311.00   3.52167506   0.01124339
312.00   3.51924035   0.01135213
313.00   3.51679786   0.01146157
314.00   3.51434758   0.01157171
315.00   3.51188951   0.01168256
316.00   3.50942365   0.01179410
317.00   3.50695001   0.01190636
318.00   3.50446858   0.01201932
319.00   3.50197936   0.01213300
320.00   3.49948236   0.01224739
321.00   3.49697757   0.01236250
322.00   3.49446499   0.01247832
323.00   3.49194463   0.01259487
324.00   3.48941648   0.01271213
325.00   3.48688055   0.01283013
326.00   3.48433684   0.01294885
327.00   3.48178534   0.01306830
328.00   3.47922605   0.01318848
329.00   3.47665898   0.01330939
330.00   3.47408413   0.01343104
331.00   3.47150150   0.01355343
332.00   3.46891108   0.01367656
333.00   3.46631288   0.01380043
334.00   3.46370689   0.01392505
335.00   3.46109313   0.01405041
336.00   3.45847158   0.01417653
337.00   3.45584225   0.01430339
338.00   3.45320514   0.01443101
339.00   3.45056025   0.01455939
340.00   3.44790757   0.01468852
341.00   3.44524712   0.01481842
342.00   3.44257889   0.01494907
343.00   3.43990287   0.01508049
344.00   3.43721908   0.01521268
345.00   3.43452751   0.01534564
346.00   3.43182816   0.01547937
347.00   3.42912103   0.01561388
348.00   3.42640612   0.01574916
349.00   3.42368343   0.01588521
350.00   3.42095297   0.01602205
351.00   3.41821473   0.01615967
352.00   3.41546871   0.01629808
353.00   3.41271491   0.01643727
354.00   3.40995334   0.01657726
355.00   3.40718399   0.01671803
356.00   3.40440687   0.01685960
357.00   3.40162197   0.01700196
358.00   3.39882929   0.01714512
359.00   3.39602884   0.01728909
360.00   3.39322061   0.01743385
361.00   3.39040461   0.01757942
362.00   3.38758084   0.01772580
363.00   3.38474929   0.01787299
364.00   3.38190997   0.01802099
365.00   3.37906287   0.01816980
366.00   3.37620801   0.01831943
367.00   3.37334536   0.01846987
368.00   3.37047495   0.01862114
369.00   3.36759677   0.01877323
370.00   3.36471081   0.01892614
371.00   3.36181708   0.01907988
372.00   3.35891558   0.01923446
373.00   3.35600631   0.01938986
374.00   3.35308927   0.01954609
375.00   3.35016446   0.01970317
376.00   3.34723188   0.01986108
377.00   3.34429153   0.02001983
378.00   3.34134341   0.02017942
379.00   3.33838753   0.02033986
380.00   3.33542387   0.02050114
381.00   3.33245244   0.02066328
382.00   3.32947325   0.02082626
383.00   3.32648629   0.02099010
384.00   3.32349157   0.02115480
385.00   3.32048907   0.02132035
386.00   3.31747881   0.02148676
387.00   3.31446079   0.02165404
388.00   3.31143499   0.02182218
389.00   3.30840143   0.02199119
390.00   3.30536011   0.02216106
391.00   3.30231102   0.02233181
392.00   3.29925417   0.02250343
393.00   3.29618955   0.02267593
394.00   3.29311717   0.02284931
395.00   3.29003703   0.02302356
396.00   3.28694912   0.02319870
397.00   3.28385345   0.02337472
398.00   3.28075002   0.02355163
399.00   3.27763882   0.02372943
400.00   3.27451986   0.02390812
401.00   3.27139314   0.02408770
402.00   3.26825866   0.02426818
403.00   3.26511642   0.02444956
404.00   3.26196642   0.02463184
405.00   3.25880866   0.02481502
406.00   3.25564314   0.02499910
407.00   3.25246986   0.02518409
408.00   3.24928882   0.02536999
409.00   3.24610002   0.02555681
410.00   3.24290346   0.02574453
411.00   3.23969915   0.02593317
412.00   3.23648707   0.02612273
413.00   3.23326724   0.02631321
414.00   3.23003966   0.02650461
415.00   3.22680431   0.02669693
416.00   3.22356121   0.02689018
417.00   3.22031036   0.02708436
418.00   3.21705174   0.02727948
419.00   3.21378538   0.02747552
420.00   3.21051125   0.02767250
421.00   3.20722938   0.02787042
422.00   3.20393975   0.02806928
423.00   3.20064236   0.02826908
424.00   3.19733722   0.02846982
425.00   3.19402433   0.02867151
426.00   3.19070369   0.02887415
427.00   3.18737529   0.02907774
428.00   3.18403914   0.02928229
429.00   3.18069524   0.02948779
430.00   3.17734359   0.02969424
431.00   3.17398419   0.02990166
432.00   3.17061704   0.03011004
433.00   3.16724213   0.03031938
434.00   3.16385948   0.03052969
435.00   3.16046908   0.03074097
436.00   3.15707093   0.03095322
437.00   3.15366503   0.03116644
438.00   3.15025138   0.03138063
439.00   3.14682998   0.03159581
440.00   3.14340084   0.03181196
441.00   3.13996394   0.03202910
442.00   3.13651931   0.03224722
443.00   3.13306692   0.03246632
444.00   3.12960679   0.03268642
445.00   3.12613891   0.03290750
446.00   3.12266329   0.03312958
447.00   3.11917992   0.03335266
448.00   3.11568881   0.03357673
449.00   3.11218996   0.03380180
450.00   3.10868336   0.03402787
451.00   3.10516901   0.03425494
452.00   3.10164693   0.03448303
453.00   3.09811710   0.03471212
454.00   3.09457953   0.03494222
455.00   3.09103421   0.03517333
456.00   3.08748116   0.03540546
457.00   3.08392036   0.03563860
458.00   3.08035183   0.03587277
459.00   3.07677555   0.03610795
460.00   3.07319153   0.03634416
461.00   3.06959978   0.03658140
462.00   3.06600028   0.03681966
463.00   3.06239305   0.03705896
464.00   3.05877807   0.03729928
465.00   3.05515536   0.03754065
466.00   3.05152491   0.03778304
467.00   3.04788673   0.03802648
468.00   3.04424081   0.03827096
469.00   3.04058715   0.03851648
470.00   3.03692575   0.03876305
471.00   3.03325662   0.03901067
472.00   3.02957975   0.03925933
473.00   3.02589515   0.03950905
474.00   3.02220282   0.03975982
475.00   3.01850275   0.04001165
476.00   3.01479495   0.04026454
477.00   3.01107941   0.04051849
478.00   3.00735614   0.04077351
479.00   3.00362514   0.04102958
480.00   2.99988641   0.04128673
481.00   2.99613994   0.04154495
482.00   2.99238575   0.04180423
483.00   2.98862382   0.04206460
484.00   2.98485416   0.04232604
485.00   2.98107677   0.04258855
486.00   2.97729166   0.04285215
487.00   2.97349881   0.04311684
488.00   2.96969824   0.04338260
489.00   2.96588993   0.04364946
490.00   2.96207390   0.04391740
491.00   2.95825014   0.04418644
492.00   2.95441866   0.04445657
493.00   2.95057945   0.04472779
494.00   2.94673251   0.04500012
495.00   2.94287784   0.04527355
496.00   2.93901545   0.04554807
497.00   2.93514534   0.04582371
498.00   2.93126750   0.04610045
499.00   2.92738194   0.04637830
500.00   2.92348865   0.04665726
501.00   2.91958764   0.04693734
502.00   2.91567891   0.04721853
503.00   2.91176245   0.04750084
504.00   2.90783827   0.04778427
505.00   2.90390637   0.04806882
506.00   2.89996675   0.04835450
507.00   2.89601941   0.04864130
508.00   2.89206435   0.04892924
509.00   2.88810157   0.04921830
510.00   2.88413107   0.04950850
511.00   2.88015285   0.04979984
512.00   2.87616691   0.05009231
513.00   2.87217326   0.05038592
514.00   2.86817188   0.05068068
515.00   2.86416279   0.05097658
516.00   2.86014598   0.05127362
517.00   2.85612146   0.05157182
518.00   2.85208922   0.05187117
519.00   2.84804926   0.05217166
520.00   2.84400159   0.05247332
521.00   2.83994621   0.05277613
522.00   2.83588311   0.05308011
523.00   2.83181229   0.05338524
524.00   2.82773377   0.05369154
525.00   2.82364753   0.05399900
526.00   2.81955357   0.05430764
527.00   2.81545191   0.05461744
528.00   2.81134253   0.05492842
529.00   2.80722545   0.05524057
530.00   2.80310065   0.05555390
531.00   2.79896814   0.05586841
532.00   2.79482792   0.05618411
533.00   2.79068000   0.05650098
534.00   2.78652436   0.05681904
535.00   2.78236102   0.05713829
536.00   2.77818997   0.05745873
537.00   2.77401121   0.05778037
538.00   2.76982474   0.05810319
539.00   2.76563057   0.05842722
540.00   2.76142869   0.05875244
541.00   2.75721910   0.05907887
542.00   2.75300181   0.05940650
543.00   2.74877682   0.05973533
544.00   2.74454412   0.06006538
545.00   2.74030372   0.06039663
546.00   2.73605561   0.06072909
547.00   2.73179980   0.06106277
548.00   2.72753629   0.06139767
549.00   2.72326508   0.06173379
550.00   2.71898616   0.06207112
551.00   2.71469955   0.06240968
552.00   2.71040523   0.06274947
553.00   2.70610321   0.06309048
554.00   2.70179350   0.06343273
555.00   2.69747608   0.06377620
556.00   2.69315097   0.06412091
557.00   2.68881815   0.06446685
558.00   2.68447764   0.06481404
559.00   2.68012944   0.06516246
560.00   2.67577353   0.06551213
561.00   2.67140993   0.06586304
562.00   2.66703864   0.06621520
563.00   2.66265964   0.06656861
564.00   2.65827296   0.06692327
565.00   2.65387858   0.06727919
566.00   2.64947650   0.06763636
567.00   2.64506673   0.06799479
568.00   2.64064927   0.06835448
569.00   2.63622411   0.06871543
570.00   2.63179127   0.06907765
571.00   2.62735073   0.06944113
572.00   2.62290250   0.06980588
573.00   2.61844658   0.07017191
574.00   2.61398297   0.07053920
575.00   2.60951167   0.07090778
576.00   2.60503268   0.07127763
577.00   2.60054601   0.07164876
578.00   2.59605164   0.07202117
579.00   2.59154959   0.07239487
580.00   2.58703985   0.07276985
581.00   2.58252242   0.07314612
582.00   2.57799731   0.07352368
583.00   2.57346451   0.07390254
584.00   2.56892402   0.07428269
585.00   2.56437586   0.07466414
586.00   2.55982000   0.07504689
587.00   2.55525647   0.07543094
588.00   2.55068525   0.07581629
589.00   2.54610634   0.07620295
590.00   2.54151976   0.07659092
591.00   2.53692549   0.07698020
592.00   2.53232354   0.07737079
593.00   2.52771391   0.07776269
594.00   2.52309660   0.07815591
595.00   2.51847161   0.07855046
596.00   2.51383895   0.07894632
597.00   2.50919860   0.07934351
598.00   2.50455057   0.07974202
599.00   2.49989487   0.08014186
600.00   2.49523149   0.08054303
601.00   2.49056043   0.08094553
602.00   2.48588170   0.08134937
603.00   2.48119529   0.08175454
604.00   2.47650120   0.08216105
605.00   2.47179945   0.08256890
606.00   2.46709001   0.08297810
607.00   2.46237291   0.08338864
608.00   2.45764813   0.08380052
609.00   2.45291567   0.08421376
610.00   2.44817555   0.08462835
611.00   2.44342775   0.08504429
612.00   2.43867228   0.08546159
613.00   2.43390914   0.08588025
614.00   2.42913834   0.08630027
615.00   2.42435986   0.08672165
616.00   2.41957371   0.08714439
617.00   2.41477990   0.08756850
618.00   2.40997841   0.08799398
619.00   2.40516926   0.08842083
620.00   2.40035244   0.08884906
621.00   2.39552796   0.08927866
622.00   2.39069581   0.08970964
623.00   2.38585599   0.09014199
624.00   2.38100851   0.09057573
625.00   2.37615336   0.09101086
626.00   2.37129056   0.09144737
627.00   2.36642008   0.09188527
628.00   2.36154195   0.09232456
629.00   2.35665615   0.09276524
630.00   2.35176269   0.09320732
631.00   2.34686157   0.09365079
632.00   2.34195279   0.09409567
633.00   2.33703635   0.09454194
634.00   2.33211225   0.09498962
635.00   2.32718049   0.09543871
636.00   2.32224107   0.09588920
637.00   2.31729399   0.09634110
638.00   2.31233926   0.09679442
639.00   2.30737687   0.09724915
640.00   2.30240682   0.09770530
641.00   2.29742912   0.09816286
642.00   2.29244376   0.09862185
643.00   2.28745075   0.09908226
644.00   2.28245008   0.09954409
645.00   2.27744176   0.10000736
646.00   2.27242579   0.10047205
647.00   2.26740216   0.10093817
648.00   2.26237088   0.10140573
649.00   2.25733195   0.10187472
650.00   2.25228537   0.10234515
651.00   2.24723114   0.10281703
652.00   2.24216926   0.10329034
653.00   2.23709973   0.10376510
654.00   2.23202255   0.10424131
655.00   2.22693772   0.10471897
656.00   2.22184525   0.10519807
657.00   2.21674512   0.10567863
658.00   2.21163735   0.10616065
659.00   2.20652194   0.10664412
660.00   2.20139888   0.10712906
661.00   2.19626817   0.10761545
662.00   2.19112982   0.10810331
663.00   2.18598383   0.10859264
664.00   2.18083019   0.10908343
665.00   2.17566891   0.10957570
666.00   2.17049999   0.11006943
667.00   2.16532343   0.11056465
668.00   2.16013923   0.11106134
669.00   2.15494738   0.11155950
670.00   2.14974790   0.11205916
671.00   2.14454077   0.11256029
672.00   2.13932601   0.11306291
673.00   2.13410361   0.11356702
674.00   2.12887357   0.11407261
675.00   2.12363590   0.11457970
676.00   2.11839059   0.11508829
677.00   2.11313764   0.11559837
678.00   2.10787706   0.11610995
679.00   2.10260884   0.11662303
680.00   2.09733299   0.11713761
681.00   2.09204950   0.11765370
682.00   2.08675838   0.11817129
683.00   2.08145963   0.11869040
684.00   2.07615325   0.11921101
685.00   2.07083923   0.11973314
686.00   2.06551759   0.12025679
687.00   2.06018831   0.12078195
688.00   2.05485141   0.12130864
689.00   2.04950687   0.12183684
690.00   2.04415471   0.12236657
691.00   2.03879492   0.12289783
692.00   2.03342750   0.12343061
693.00   2.02805246   0.12396493
694.00   2.02266979   0.12450078
695.00   2.01727949   0.12503816
696.00   2.01188157   0.12557709
697.00   2.00647603   0.12611755
698.00   2.00106286   0.12665955
699.00   1.99564207   0.12720310
700.00   1.99021365   0.12774819
701.00   1.98477761   0.12829483
702.00   1.97933395   0.12884302
703.00   1.97388267   0.12939277
704.00   1.96842378   0.12994406
705.00   1.96295726   0.13049692
706.00   1.95748312   0.13105133
707.00   1.95200136   0.13160731
708.00   1.94651199   0.13216484
709.00   1.94101499   0.13272394
710.00   1.93551038   0.13328461
711.00   1.92999816   0.13384685
712.00   1.92447832   0.13441066
713.00   1.91895086   0.13497605
714.00   1.91341579   0.13554301
715.00   1.90787311   0.13611155
716.00   1.90232281   0.13668167
717.00   1.89676490   0.13725337
718.00   1.89119938   0.13782665
719.00   1.88562625   0.13840153
720.00   1.88004550   0.13897799
721.00   1.87445715   0.13955604
722.00   1.86886119   0.14013568
723.00   1.86325762   0.14071692
724.00   1.85764644   0.14129976
725.00   1.85202765   0.14188420
726.00   1.84640125   0.14247024
727.00   1.84076725   0.14305788
728.00   1.83512564   0.14364713
729.00   1.82947643   0.14423798
730.00   1.82381961   0.14483045
731.00   1.81815519   0.14542453
732.00   1.81248317   0.14602022
733.00   1.80680354   0.14661753
734.00   1.80111631   0.14721646
735.00   1.79542148   0.14781701
736.00   1.78971904   0.14841918
737.00   1.78400901   0.14902298
738.00   1.77829138   0.14962840
739.00   1.77256614   0.15023546
740.00   1.76683331   0.15084414
741.00   1.76109288   0.15145446
742.00   1.75534486   0.15206641
743.00   1.74958924   0.15268001
744.00   1.74382602   0.15329524
745.00   1.73805520   0.15391212
746.00   1.73227679   0.15453063
747.00   1.72649079   0.15515080
748.00   1.72069719   0.15577261
749.00   1.71489601   0.15639608
750.00   1.70908722   0.15702120
751.00   1.70327085   0.15764797
752.00   1.69744689   0.15827640
753.00   1.69161533   0.15890649
754.00   1.68577619   0.15953824
755.00   1.67992945   0.16017165
756.00   1.67407513   0.16080673
757.00   1.66821322   0.16144348
758.00   1.66234372   0.16208190
759.00   1.65646664   0.16272199
760.00   1.65058197   0.16336375
761.00   1.64468971   0.16400719
762.00   1.63878987   0.16465231
763.00   1.63288245   0.16529911
764.00   1.62696744   0.16594759
765.00   1.62104485   0.16659776
766.00   1.61511467   0.16724961
767.00   1.60917692   0.16790315
768.00   1.60323158   0.16855838
769.00   1.59727867   0.16921531
770.00   1.59131817   0.16987393
771.00   1.58535010   0.17053425
772.00   1.57937444   0.17119627
773.00   1.57339121   0.17185999
774.00   1.56740041   0.17252542
775.00   1.56140202   0.17319255
776.00   1.55539606   0.17386139
777.00   1.54938253   0.17453194
778.00   1.54336142   0.17520420
779.00   1.53733274   0.17587818
780.00   1.53129648   0.17655387
781.00   1.52525265   0.17723128
782.00   1.51920125   0.17791041
783.00   1.51314228   0.17859127
784.00   1.50707574   0.17927385
785.00   1.50100162   0.17995816
786.00   1.49491994   0.18064420
787.00   1.48883069   0.18133197
788.00   1.48273387   0.18202147
789.00   1.47662949   0.18271271
790.00   1.47051754   0.18340569
791.00   1.46439802   0.18410040
792.00   1.45827094   0.18479686
793.00   1.45213629   0.18549506
794.00   1.44599408   0.18619501
795.00   1.43984430   0.18689671
796.00   1.43368696   0.18760016
797.00   1.42752206   0.18830536
798.00   1.42134960   0.18901231
799.00   1.41516958   0.18972103
800.00   1.40898200   0.19043150
801.00   1.40278686   0.19114373
802.00   1.39658416   0.19185773
803.00   1.39037390   0.19257349
804.00   1.38415609   0.19329102
805.00   1.37793071   0.19401032
806.00   1.37169779   0.19473139
807.00   1.36545730   0.19545423
808.00   1.35920927   0.19617885
809.00   1.35295367   0.19690525
810.00   1.34669053   0.19763343
811.00   1.34041983   0.19836339
812.00   1.33414158   0.19909514
813.00   1.32785578   0.19982867
814.00   1.32156243   0.20056399
815.00   1.31526153   0.20130110
816.00   1.30895308   0.20204000
817.00   1.30263708   0.20278070
818.00   1.29631353   0.20352320
819.00   1.28998244   0.20426750
820.00   1.28364380   0.20501359
821.00   1.27729761   0.20576149
822.00   1.27094388   0.20651120
823.00   1.26458260   0.20726271
824.00   1.25821378   0.20801604
825.00   1.25183742   0.20877117
826.00   1.24545351   0.20952812
827.00   1.23906206   0.21028689
828.00   1.23266308   0.21104747
829.00   1.22625655   0.21180987
830.00   1.21984248   0.21257410
831.00   1.21342087   0.21334015
832.00   1.20699173   0.21410803
833.00   1.20055504   0.21487773
834.00   1.19411082   0.21564927
835.00   1.18765907   0.21642264
836.00   1.18119977   0.21719784
837.00   1.17473295   0.21797489
838.00   1.16825859   0.21875377
839.00   1.16177669   0.21953449
840.00   1.15528726   0.22031705
841.00   1.14879030   0.22110147
842.00   1.14228581   0.22188773
843.00   1.13577379   0.22267583
844.00   1.12925424   0.22346580
845.00   1.12272716   0.22425761
846.00   1.11619255   0.22505128
847.00   1.10965042   0.22584681
848.00   1.10310075   0.22664420
849.00   1.09654356   0.22744345
850.00   1.08997885   0.22824457
851.00   1.08340660   0.22904755
852.00   1.07682684   0.22985240
853.00   1.07023955   0.23065912
854.00   1.06364474   0.23146772
855.00   1.05704240   0.23227819
856.00   1.05043255   0.23309054
857.00   1.04381517   0.23390476
858.00   1.03719028   0.23472087
859.00   1.03055786   0.23553886
860.00   1.02391792   0.23635874
861.00   1.01727047   0.23718050
862.00   1.01061550   0.23800415
863.00   1.00395302   0.23882970
864.00   0.99728301   0.23965714
865.00   0.99060550   0.24048647
866.00   0.98392047   0.24131771
867.00   0.97722792   0.24215084
868.00   0.97052786   0.24298588
869.00   0.96382029   0.24382282
870.00   0.95710521   0.24466166
871.00   0.95038262   0.24550242
872.00   0.94365252   0.24634508
873.00   0.93691491   0.24718966
874.00   0.93016979   0.24803615
875.00   0.92341716   0.24888456
876.00   0.91665702   0.24973489
877.00   0.90988938   0.25058714
878.00   0.90311423   0.25144131
879.00   0.89633158   0.25229741
880.00   0.88954142   0.25315544
881.00   0.88274376   0.25401539
882.00   0.87593860   0.25487728
883.00   0.86912594   0.25574110
884.00   0.86230577   0.25660686
885.00   0.85547810   0.25747455
886.00   0.84864294   0.25834418
887.00   0.84180027   0.25921576
888.00   0.83495011   0.26008928
889.00   0.82809244   0.26096474
890.00   0.82122729   0.26184216
891.00   0.81435463   0.26272152
892.00   0.80747448   0.26360284
893.00   0.80058684   0.26448611
894.00   0.79369170   0.26537134
895.00   0.78678906   0.26625852
896.00   0.77987894   0.26714767
897.00   0.77296132   0.26803878
898.00   0.76603622   0.26893185
899.00   0.75910362   0.26982689
900.00   0.75216353   0.27072391
901.00   0.74521595   0.27162289
902.00   0.73826089   0.27252384
903.00   0.73129834   0.27342677
904.00   0.72432830   0.27433168
905.00   0.71735078   0.27523857
906.00   0.71036577   0.27614744
907.00   0.70337328   0.27705829
908.00   0.69637330   0.27797113
909.00   0.68936584   0.27888595
910.00   0.68235090   0.27980277
911.00   0.67532848   0.28072158
912.00   0.66829857   0.28164238
913.00   0.66126119   0.28256518
914.00   0.65421633   0.28348997
915.00   0.64716399   0.28441677
916.00   0.64010417   0.28534557
917.00   0.63303687   0.28627637
918.00   0.62596210   0.28720918
919.00   0.61887986   0.28814400
920.00   0.61179014   0.28908083
921.00   0.60469294   0.29001967
922.00   0.59758828   0.29096053
923.00   0.59047614   0.29190340
924.00   0.58335653   0.29284829
925.00   0.57622944   0.29379520
926.00   0.56909489   0.29474414
927.00   0.56195287   0.29569510
928.00   0.55480338   0.29664809
929.00   0.54764643   0.29760311
930.00   0.54048200   0.29856016
931.00   0.53331011   0.29951924
932.00   0.52613076   0.30048036
933.00   0.51894394   0.30144352
934.00   0.51174965   0.30240871
935.00   0.50454791   0.30337595
936.00   0.49733870   0.30434523
937.00   0.49012203   0.30531656
938.00   0.48289790   0.30628994
939.00   0.47566631   0.30726536
940.00   0.46842726   0.30824284
941.00   0.46118075   0.30922237
942.00   0.45392678   0.31020396
943.00   0.44666536   0.31118761
944.00   0.43939648   0.31217331
945.00   0.43212015   0.31316108
946.00   0.42483636   0.31415092
947.00   0.41754512   0.31514282
948.00   0.41024642   0.31613679
949.00   0.40294027   0.31713282
950.00   0.39562667   0.31813094
951.00   0.38830562   0.31913112
952.00   0.38097713   0.32013339
953.00   0.37364118   0.32113773
954.00   0.36629778   0.32214416
955.00   0.35894694   0.32315266
956.00   0.35158864   0.32416326
957.00   0.34422291   0.32517594
958.00   0.33684973   0.32619071
959.00   0.32946910   0.32720757
960.00   0.32208103   0.32822652
961.00   0.31468552   0.32924757
962.00   0.30728256   0.33027072
963.00   0.29987217   0.33129596
964.00   0.29245433   0.33232331
965.00   0.28502906   0.33335276
966.00   0.27759634   0.33438432
967.00   0.27015619   0.33541799
968.00   0.26270860   0.33645376
969.00   0.25525357   0.33749165
970.00   0.24779111   0.33853165
971.00   0.24032121   0.33957377
972.00   0.23284388   0.34061800
973.00   0.22535912   0.34166436
974.00   0.21786692   0.34271284
975.00   0.21036730   0.34376344
976.00   0.20286024   0.34481617
977.00   0.19534575   0.34587102
978.00   0.18782383   0.34692801
979.00   0.18029449   0.34798713
980.00   0.17275771   0.34904839
981.00   0.16521351   0.35011178
982.00   0.15766188   0.35117731
983.00   0.15010283   0.35224498
984.00   0.14253636   0.35331479
985.00   0.13496246   0.35438675
986.00   0.12738113   0.35546085
987.00   0.11979239   0.35653711
988.00   0.11219622   0.35761551
989.00   0.10459264   0.35869607
990.00   0.09698163   0.35977879
991.00   0.08936321   0.36086366
992.00   0.08173737   0.36195069
993.00   0.07410411   0.36303988
994.00   0.06646343   0.36413123
995.00   0.05881534   0.36522475
996.00   0.05115983   0.36632044
997.00   0.04349691   0.36741829
998.00   0.03582658   0.36851832
999.00   0.02814884   0.36962052
1000.00   0.02046368   0.37072490
1001.00   0.01277111   0.37183145
1002.00   0.00507114   0.37294019
1003.00  -0.00263625   0.37405110
1004.00  -0.01035104   0.37516420
1005.00  -0.01807324   0.37627949
1006.00  -0.02580285   0.37739696
1007.00  -0.03353986   0.37851663
1008.00  -0.04128428   0.37963848
1009.00  -0.04903610   0.38076253
1010.00  -0.05679533   0.38188878
1011.00  -0.06456195   0.38301722
1012.00  -0.07233598   0.38414786
1013.00  -0.08011741   0.38528071
1014.00  -0.08790624   0.38641576
1015.00  -0.09570247   0.38755301
1016.00  -0.10350609   0.38869248
1017.00  -0.11131712   0.38983415
1018.00  -0.11913554   0.39097804
1019.00  -0.12696135   0.39212414
1020.00  -0.13479456   0.39327246
1021.00  -0.14263517   0.39442299
1022.00  -0.15048317   0.39557575
1023.00  -0.15833856   0.39673073
1024.00  -0.16620134   0.39788793
1025.00  -0.17407151   0.39904736
1026.00  -0.18194907   0.40020902
1027.00  -0.18983402   0.40137291
1028.00  -0.19772636   0.40253904
1029.00  -0.20562609   0.40370739
1030.00  -0.21353320   0.40487799
1031.00  -0.22144770   0.40605082
1032.00  -0.22936958   0.40722589
1033.00  -0.23729885   0.40840321
1034.00  -0.24523550   0.40958277
1035.00  -0.25317953   0.41076458
1036.00  -0.26113095   0.41194864
1037.00  -0.26908974   0.41313495
1038.00  -0.27705592   0.41432351
1039.00  -0.28502947   0.41551433
1040.00  -0.29301040   0.41670740
1041.00  -0.30099871   0.41790273
1042.00  -0.30899440   0.41910033
1043.00  -0.31699746   0.42030019
1044.00  -0.32500789   0.42150231
1045.00  -0.33302570   0.42270670
1046.00  -0.34105088   0.42391336
1047.00  -0.34908344   0.42512229
1048.00  -0.35712336   0.42633349
1049.00  -0.36517066   0.42754697
1050.00  -0.37322532   0.42876273
1051.00  -0.38128735   0.42998076
1052.00  -0.38935675   0.43120108
1053.00  -0.39743352   0.43242368
1054.00  -0.40551766   0.43364857
1055.00  -0.41360916   0.43487575
1056.00  -0.42170802   0.43610521
1057.00  -0.42981425   0.43733696
1058.00  -0.43792784   0.43857101
1059.00  -0.44604879   0.43980736
1060.00  -0.45417710   0.44104600
1061.00  -0.46231277   0.44228694
1062.00  -0.47045581   0.44353019
1063.00  -0.47860620   0.44477573
1064.00  -0.48676394   0.44602359
1065.00  -0.49492905   0.44727375
1066.00  -0.50310151   0.44852622
1067.00  -0.51128132   0.44978100
1068.00  -0.51946849   0.45103810
1069.00  -0.52766301   0.45229751
1070.00  -0.53586489   0.45355924
1071.00  -0.54407411   0.45482329
1072.00  -0.55229069   0.45608966
1073.00  -0.56051461   0.45735836
1074.00  -0.56874589   0.45862938
1075.00  -0.57698451   0.45990273
1076.00  -0.58523048   0.46117841
1077.00  -0.59348379   0.46245642
1078.00  -0.60174445   0.46373677
1079.00  -0.61001246   0.46501945
1080.00  -0.61828781   0.46630447
1081.00  -0.62657050   0.46759183
1082.00  -0.63486053   0.46888153
1083.00  -0.64315790   0.47017358
1084.00  -0.65146261   0.47146797
1085.00  -0.65977467   0.47276471
1086.00  -0.66809406   0.47406380
1087.00  -0.67642079   0.47536525
1088.00  -0.68475485   0.47666904
1089.00  -0.69309625   0.47797520
1090.00  -0.70144498   0.47928371
1091.00  -0.70980105   0.48059458
1092.00  -0.71816445   0.48190781
1093.00  -0.72653519   0.48322341
1094.00  -0.73491325   0.48454137
1095.00  -0.74329865   0.48586171
1096.00  -0.75169137   0.48718441
1097.00  -0.76009142   0.48850948
1098.00  -0.76849880   0.48983693
1099.00  -0.77691351   0.49116676
1100.00  -0.78533554   0.49249896
1101.00  -0.79376490   0.49383354
1102.00  -0.80220158   0.49517051
1103.00  -0.81064559   0.49650986
1104.00  -0.81909691   0.49785160
1105.00  -0.82755556   0.49919572
1106.00  -0.83602153   0.50054224
1107.00  -0.84449482   0.50189114
1108.00  -0.85297542   0.50324244
1109.00  -0.86146335   0.50459614
1110.00  -0.86995859   0.50595224
1111.00  -0.87846114   0.50731073
1112.00  -0.88697102   0.50867163
1113.00  -0.89548820   0.51003494
1114.00  -0.90401270   0.51140065
1115.00  -0.91254451   0.51276876
1116.00  -0.92108364   0.51413929
1117.00  -0.92963007   0.51551223
1118.00  -0.93818381   0.51688759
1119.00  -0.94674487   0.51826536
1120.00  -0.95531323   0.51964555
1121.00  -0.96388889   0.52102815
1122.00  -0.97247186   0.52241319
1123.00  -0.98106214   0.52380064
1124.00  -0.98965972   0.52519052
1125.00  -0.99826461   0.52658284
1126.00  -1.00687680   0.52797758
1127.00  -1.01549628   0.52937475
1128.00  -1.02412307   0.53077436
1129.00  -1.03275716   0.53217640
1130.00  -1.04139855   0.53358088
1131.00  -1.05004723   0.53498780
1132.00  -1.05870322   0.53639717
1133.00  -1.06736649   0.53780898
1134.00  -1.07603707   0.53922323
1135.00  -1.08471494   0.54063994
1136.00  -1.09340010   0.54205909
1137.00  -1.10209255   0.54348069
1138.00  -1.11079229   0.54490475
1139.00  -1.11949933   0.54633127
1140.00  -1.12821365   0.54776024
1141.00  -1.13693526   0.54919168
1142.00  -1.14566416   0.55062557
1143.00  -1.15440035   0.55206193
1144.00  -1.16314382   0.55350076
1145.00  -1.17189458   0.55494206
1146.00  -1.18065262   0.55638582
1147.00  -1.18941795   0.55783206
1148.00  -1.19819055   0.55928077
1149.00  -1.20697044   0.56073196
1150.00  -1.21575761   0.56218562
1151.00  -1.22455206   0.56364177
1152.00  -1.23335378   0.56510039
1153.00  -1.24216279   0.56656150
1154.00  -1.25097907   0.56802510
1155.00  -1.25980262   0.56949119
1156.00  -1.26863345   0.57095976
1157.00  -1.27747155   0.57243083
1158.00  -1.28631693   0.57390439
1159.00  -1.29516958   0.57538045
1160.00  -1.30402950   0.57685900
1161.00  -1.31289669   0.57834005
1162.00  -1.32177115   0.57982361
1163.00  -1.33065287   0.58130967
1164.00  -1.33954187   0.58279824
1165.00  -1.34843813   0.58428931
1166.00  -1.35734165   0.58578289
1167.00  -1.36625244   0.58727899
1168.00  -1.37517050   0.58877760
1169.00  -1.38409581   0.59027872
1170.00  -1.39302839   0.59178236
1171.00  -1.40196823   0.59328853
1172.00  -1.41091533   0.59479721
1173.00  -1.41986968   0.59630842
1174.00  -1.42883130   0.59782215
1175.00  -1.43780017   0.59933841
1176.00  -1.44677629   0.60085720
1177.00  -1.45575967   0.60237852
1178.00  -1.46475031   0.60390238
1179.00  -1.47374820   0.60542877
1180.00  -1.48275334   0.60695769
1181.00  -1.49176573   0.60848916
1182.00  -1.50078537   0.61002317
1183.00  -1.50981227   0.61155972
1184.00  -1.51884640   0.61309882
1185.00  -1.52788779   0.61464046
1186.00  -1.53693643   0.61618465
1187.00  -1.54599230   0.61773140
1188.00  -1.55505543   0.61928070
1189.00  -1.56412579   0.62083255
1190.00  -1.57320340   0.62238696
1191.00  -1.58228825   0.62394393
1192.00  -1.59138035   0.62550346
1193.00  -1.60047968   0.62706555
1194.00  -1.60958625   0.62863021
1195.00  -1.61870005   0.63019743
1196.00  -1.62782110   0.63176723
1197.00  -1.63694938   0.63333959
1198.00  -1.64608489   0.63491453
1199.00  -1.65522764   0.63649204
1200.00  -1.66437763   0.63807213
1201.00  -1.67353484   0.63965480
1202.00  -1.68269929   0.64124005
1203.00  -1.69187096   0.64282788
1204.00  -1.70104986   0.64441829
1205.00  -1.71023600   0.64601129
1206.00  -1.71942936   0.64760689
1207.00  -1.72862994   0.64920507
1208.00  -1.73783775   0.65080584
1209.00  -1.74705279   0.65240921
1210.00  -1.75627505   0.65401517
1211.00  -1.76550453   0.65562374
1212.00  -1.77474123   0.65723490
1213.00  -1.78398515   0.65884866
1214.00  -1.79323629   0.66046503
1215.00  -1.80249465   0.66208401
1216.00  -1.81176023   0.66370559
1217.00  -1.82103303   0.66532979
1218.00  -1.83031304   0.66695659
1219.00  -1.83960026   0.66858601
1220.00  -1.84889470   0.67021805
1221.00  -1.85819635   0.67185270
1222.00  -1.86750521   0.67348997
1223.00  -1.87682128   0.67512987
1224.00  -1.88614457   0.67677239
1225.00  -1.89547506   0.67841753
1226.00  -1.90481276   0.68006531
1227.00  -1.91415766   0.68171571
1228.00  -1.92350977   0.68336874
1229.00  -1.93286909   0.68502441
1230.00  -1.94223561   0.68668271
1231.00  -1.95160933   0.68834365
1232.00  -1.96099025   0.69000723
1233.00  -1.97037838   0.69167345
1234.00  -1.97977370   0.69334231
1235.00  -1.98917623   0.69501382
1236.00  -1.99858595   0.69668798
1237.00  -2.00800286   0.69836478
1238.00  -2.01742698   0.70004424
1239.00  -2.02685829   0.70172635
1240.00  -2.03629679   0.70341111
1241.00  -2.04574248   0.70509853
1242.00  -2.05519537   0.70678861
1243.00  -2.06465545   0.70848135
1244.00  -2.07412272   0.71017676
1245.00  -2.08359717   0.71187482
1246.00  -2.09307882   0.71357556
1247.00  -2.10256765   0.71527896
1248.00  -2.11206367   0.71698503
1249.00  -2.12156687   0.71869378
1250.00  -2.13107726   0.72040520
1251.00  -2.14059483   0.72211930
1252.00  -2.15011958   0.72383607
1253.00  -2.15965151   0.72555552
1254.00  -2.16919062   0.72727766
1255.00  -2.17873691   0.72900248
1256.00  -2.18829038   0.73072999
1257.00  -2.19785103   0.73246018
1258.00  -2.20741885   0.73419307
1259.00  -2.21699384   0.73592864
1260.00  -2.22657601   0.73766691
1261.00  -2.23616536   0.73940788
1262.00  -2.24576187   0.74115154
1263.00  -2.25536556   0.74289791
1264.00  -2.26497641   0.74464697
1265.00  -2.27459444   0.74639874
1266.00  -2.28421963   0.74815321
1267.00  -2.29385199   0.74991039
1268.00  -2.30349152   0.75167028
1269.00  -2.31313821   0.75343288
1270.00  -2.32279206   0.75519820
1271.00  -2.33245308   0.75696622
1272.00  -2.34212125   0.75873697
1273.00  -2.35179659   0.76051043
1274.00  -2.36147909   0.76228662
1275.00  -2.37116875   0.76406553
1276.00  -2.38086557   0.76584716
1277.00  -2.39056954   0.76763152
1278.00  -2.40028067   0.76941861
1279.00  -2.40999895   0.77120842
1280.00  -2.41972438   0.77300098
1281.00  -2.42945697   0.77479626
1282.00  -2.43919671   0.77659428
1283.00  -2.44894360   0.77839504
1284.00  -2.45869764   0.78019854
1285.00  -2.46845883   0.78200478
1286.00  -2.47822717   0.78381376
1287.00  -2.48800265   0.78562549
1288.00  -2.49778528   0.78743997
1289.00  -2.50757505   0.78925720
1290.00  -2.51737197   0.79107718
1291.00  -2.52717603   0.79289991
1292.00  -2.53698723   0.79472540
1293.00  -2.54680557   0.79655365
1294.00  -2.55663105   0.79838465
1295.00  -2.56646367   0.80021842
1296.00  -2.57630342   0.80205495
1297.00  -2.58615032   0.80389424
1298.00  -2.59600434   0.80573631
1299.00  -2.60586550   0.80758114
1300.00  -2.61573380   0.80942874
1301.00  -2.62560922   0.81127911
1302.00  -2.63549178   0.81313226
1303.00  -2.64538147   0.81498818
1304.00  -2.65527828   0.81684689
1305.00  -2.66518223   0.81870837
1306.00  -2.67509330   0.82057264
1307.00  -2.68501150   0.82243969
1308.00  -2.69493682   0.82430952
1309.00  -2.70486927   0.82618215
1310.00  -2.71480883   0.82805756
1311.00  -2.72475552   0.82993577
1312.00  -2.73470934   0.83181677
1313.00  -2.74467027   0.83370056
1314.00  -2.75463832   0.83558716
1315.00  -2.76461348   0.83747655
1316.00  -2.77459577   0.83936874
1317.00  -2.78458516   0.84126374
1318.00  -2.79458168   0.84316154
1319.00  -2.80458530   0.84506215
1320.00  -2.81459604   0.84696557
1321.00  -2.82461389   0.84887180
1322.00  -2.83463886   0.85078084
1323.00  -2.84467093   0.85269270
1324.00  -2.85471010   0.85460737
1325.00  -2.86475639   0.85652486
1326.00  -2.87480978   0.85844517
1327.00  -2.88487028   0.86036831
1328.00  -2.89493788   0.86229427
1329.00  -2.90501258   0.86422305
1330.00  -2.91509439   0.86615467
1331.00  -2.92518329   0.86808911
1332.00  -2.93527930   0.87002639
1333.00  -2.94538240   0.87196649
1334.00  -2.95549260   0.87390944
1335.00  -2.96560990   0.87585522
1336.00  -2.97573430   0.87780384
1337.00  -2.98586579   0.87975531
1338.00  -2.99600437   0.88170961
1339.00  -3.00615004   0.88366676
1340.00  -3.01630281   0.88562676
1341.00  -3.02646266   0.88758961
1342.00  -3.03662961   0.88955531
1343.00  -3.04680364   0.89152386
1344.00  -3.05698476   0.89349526
1345.00  -3.06717297   0.89546953
1346.00  -3.07736826   0.89744665
1347.00  -3.08757064   0.89942663
1348.00  -3.09778010   0.90140947
1349.00  -3.10799664   0.90339518
1350.00  -3.11822026   0.90538375
1351.00  -3.12845096   0.90737519
1352.00  -3.13868873   0.90936950
1353.00  -3.14893359   0.91136669
1354.00  -3.15918552   0.91336674
1355.00  -3.16944453   0.91536967
1356.00  -3.17971061   0.91737548
1357.00  -3.18998377   0.91938417
1358.00  -3.20026400   0.92139574
1359.00  -3.21055130   0.92341019
1360.00  -3.22084567   0.92542753
1361.00  -3.23114710   0.92744775
1362.00  -3.24145561   0.92947087
1363.00  -3.25177118   0.93149687
1364.00  -3.26209382   0.93352577
1365.00  -3.27242352   0.93555756
1366.00  -3.28276029   0.93759224
1367.00  -3.29310412   0.93962983
1368.00  -3.30345501   0.94167031
1369.00  -3.31381296   0.94371370
1370.00  -3.32417797   0.94575999
1371.00  -3.33455004   0.94780919
1372.00  -3.34492916   0.94986129
1373.00  -3.35531534   0.95191630
1374.00  -3.36570858   0.95397423
1375.00  -3.37610887   0.95603506
1376.00  -3.38651621   0.95809882
1377.00  -3.39693060   0.96016548
1378.00  -3.40735205   0.96223507
1379.00  -3.41778054   0.96430758
1380.00  -3.42821609   0.96638301
1381.00  -3.43865868   0.96846137
1382.00  -3.44910831   0.97054265
1383.00  -3.45956499   0.97262686
1384.00  -3.47002872   0.97471400
1385.00  -3.48049949   0.97680407
1386.00  -3.49097730   0.97889708
1387.00  -3.50146215   0.98099302
1388.00  -3.51195404   0.98309190
1389.00  -3.52245297   0.98519372
1390.00  -3.53295894   0.98729848
1391.00  -3.54347194   0.98940618
1392.00  -3.55399198   0.99151683
1393.00  -3.56451905   0.99363043
1394.00  -3.57505316   0.99574697
1395.00  -3.58559430   0.99786646
1396.00  -3.59614247   0.99998891
1397.00  -3.60669767   1.00211431
1398.00  -3.61725990   1.00424267
1399.00  -3.62782915   1.00637399
1400.00  -3.63840543   1.00850826
1401.00  -3.64898874   1.01064550
1402.00  -3.65957907   1.01278570
1403.00  -3.67017643   1.01492887
1404.00  -3.68078081   1.01707500
1405.00  -3.69139221   1.01922411
1406.00  -3.70201063   1.02137618
1407.00  -3.71263606   1.02353123
1408.00  -3.72326852   1.02568926
1409.00  -3.73390799   1.02785026
1410.00  -3.74455448   1.03001423
1411.00  -3.75520798   1.03218119
1412.00  -3.76586850   1.03435114
1413.00  -3.77653603   1.03652406
1414.00  -3.78721057   1.03869997
1415.00  -3.79789211   1.04087887
1416.00  -3.80858067   1.04306076
1417.00  -3.81927624   1.04524565
1418.00  -3.82997881   1.04743352
1419.00  -3.84068839   1.04962439
1420.00  -3.85140497   1.05181826
1421.00  -3.86212856   1.05401513
1422.00  -3.87285915   1.05621499
1423.00  -3.88359674   1.05841786
1424.00  -3.89434133   1.06062374
1425.00  -3.90509292   1.06283262
1426.00  -3.91585150   1.06504451
1427.00  -3.92661708   1.06725941
1428.00  -3.93738966   1.06947732
1429.00  -3.94816924   1.07169825
1430.00  -3.95895580   1.07392219
1431.00  -3.96974936   1.07614915
1432.00  -3.98054991   1.07837913
1433.00  -3.99135745   1.08061213
1434.00  -4.00217198   1.08284816
1435.00  -4.01299350   1.08508721
1436.00  -4.02382200   1.08732928
1437.00  -4.03465749   1.08957439
1438.00  -4.04549996   1.09182252
1439.00  -4.05634942   1.09407369
1440.00  -4.06720586   1.09632790
1441.00  -4.07806928   1.09858513
1442.00  -4.08893968   1.10084541
1443.00  -4.09981705   1.10310873
1444.00  -4.11070141   1.10537508
1445.00  -4.12159274   1.10764449
1446.00  -4.13249105   1.10991693
1447.00  -4.14339633   1.11219243
1448.00  -4.15430859   1.11447097
1449.00  -4.16522782   1.11675256
1450.00  -4.17615401   1.11903721
1451.00  -4.18708718   1.12132491
1452.00  -4.19802732   1.12361567
1453.00  -4.20897442   1.12590949
1454.00  -4.21992849   1.12820636
1455.00  -4.23088953   1.13050630
1456.00  -4.24185753   1.13280930
1457.00  -4.25283249   1.13511537
1458.00  -4.26381441   1.13742451
1459.00  -4.27480330   1.13973671
1460.00  -4.28579914   1.14205199
1461.00  -4.29680195   1.14437034
1462.00  -4.30781171   1.14669176
1463.00  -4.31882842   1.14901626
1464.00  -4.32985210   1.15134384
1465.00  -4.34088272   1.15367450
1466.00  -4.35192030   1.15600824
1467.00  -4.36296483   1.15834506
1468.00  -4.37401631   1.16068497
1469.00  -4.38507474   1.16302797
1470.00  -4.39614012   1.16537406
1471.00  -4.40721244   1.16772324
1472.00  -4.41829171   1.17007551
1473.00  -4.42937792   1.17243088
1474.00  -4.44047108   1.17478934
1475.00  -4.45157118   1.17715091
1476.00  -4.46267823   1.17951557
1477.00  -4.47379221   1.18188334
1478.00  -4.48491313   1.18425420
1479.00  -4.49604099   1.18662818
1480.00  -4.50717579   1.18900526
1481.00  -4.51831752   1.19138546
1482.00  -4.52946618   1.19376876
1483.00  -4.54062178   1.19615518
1484.00  -4.55178431   1.19854471
1485.00  -4.56295378   1.20093736
1486.00  -4.57413017   1.20333313
1487.00  -4.58531349   1.20573202
1488.00  -4.59650374   1.20813403
1489.00  -4.60770091   1.21053917
1490.00  -4.61890501   1.21294743
1491.00  -4.63011603   1.21535882
1492.00  -4.64133398   1.21777334
1493.00  -4.65255885   1.22019099
1494.00  -4.66379064   1.22261177
1495.00  -4.67502935   1.22503569
1496.00  -4.68627497   1.22746275
1497.00  -4.69752752   1.22989294
1498.00  -4.70878697   1.23232628
1499.00  -4.72005335   1.23476275
1500.00  -4.73132664   1.23720237
1501.00  -4.74260684   1.23964514
1502.00  -4.75389395   1.24209106
1503.00  -4.76518797   1.24454012
1504.00  -4.77648890   1.24699234
1505.00  -4.78779674   1.24944771
1506.00  -4.79911148   1.25190623
1507.00  -4.81043313   1.25436792
1508.00  -4.82176169   1.25683276
1509.00  -4.83309714   1.25930076
1510.00  -4.84443950   1.26177192
1511.00  -4.85578876   1.26424625
1512.00  -4.86714492   1.26672374
1513.00  -4.87850798   1.26920440
1514.00  -4.88987794   1.27168823
1515.00  -4.90125479   1.27417524
1516.00  -4.91263854   1.27666541
1517.00  -4.92402918   1.27915876
1518.00  -4.93542671   1.28165529
1519.00  -4.94683113   1.28415499
1520.00  -4.95824245   1.28665788
1521.00  -4.96966065   1.28916395
1522.00  -4.98108574   1.29167320
1523.00  -4.99251772   1.29418564
1524.00  -5.00395658   1.29670127
1525.00  -5.01540233   1.29922008
1526.00  -5.02685496   1.30174209
1527.00  -5.03831448   1.30426729
1528.00  -5.04978087   1.30679568
1529.00  -5.06125415   1.30932727
1530.00  -5.07273430   1.31186206
1531.00  -5.08422133   1.31440005
1532.00  -5.09571523   1.31694124
1533.00  -5.10721601   1.31948564
1534.00  -5.11872367   1.32203324
1535.00  -5.13023819   1.32458405
1536.00  -5.14175959   1.32713806
1537.00  -5.15328786   1.32969529
1538.00  -5.16482300   1.33225573
1539.00  -5.17636500   1.33481939
1540.00  -5.18791388   1.33738626
1541.00  -5.19946961   1.33995635
1542.00  -5.21103221   1.34252966
1543.00  -5.22260168   1.34510619
1544.00  -5.23417801   1.34768595
1545.00  -5.24576119   1.35026893
1546.00  -5.25735124   1.35285514
1547.00  -5.26894814   1.35544458
1548.00  -5.28055191   1.35803724
1549.00  -5.29216252   1.36063314
1550.00  -5.30378000   1.36323228
1551.00  -5.31540432   1.36583465
1552.00  -5.32703550   1.36844026
1553.00  -5.33867353   1.37104911
1554.00  -5.35031841   1.37366120
1555.00  -5.36197014   1.37627653
1556.00  -5.37362872   1.37889511
1557.00  -5.38529414   1.38151693
1558.00  -5.39696641   1.38414201
1559.00  -5.40864552   1.38677033
1560.00  -5.42033147   1.38940191
1561.00  -5.43202427   1.39203674
1562.00  -5.44372391   1.39467482
1563.00  -5.45543038   1.39731616
1564.00  -5.46714370   1.39996077
1565.00  -5.47886385   1.40260863
1566.00  -5.49059083   1.40525976
1567.00  -5.50232465   1.40791415
1568.00  -5.51406531   1.41057181
1569.00  -5.52581279   1.41323273
1570.00  -5.53756711   1.41589693
1571.00  -5.54932826   1.41856439
1572.00  -5.56109623   1.42123514
1573.00  -5.57287103   1.42390915
1574.00  -5.58465266   1.42658644
1575.00  -5.59644111   1.42926702
1576.00  -5.60823639   1.43195087
1577.00  -5.62003849   1.43463800
1578.00  -5.63184741   1.43732842
1579.00  -5.64366315   1.44002213
1580.00  -5.65548571   1.44271912
1581.00  -5.66731508   1.44541940
1582.00  -5.67915127   1.44812298
1583.00  -5.69099428   1.45082984
1584.00  -5.70284410   1.45354001
1585.00  -5.71470074   1.45625346
1586.00  -5.72656418   1.45897022
1587.00  -5.73843444   1.46169028
1588.00  -5.75031150   1.46441364
1589.00  -5.76219537   1.46714030
1590.00  -5.77408605   1.46987026
1591.00  -5.78598353   1.47260354
1592.00  -5.79788782   1.47534012
1593.00  -5.80979891   1.47808002
1594.00  -5.82171681   1.48082322
1595.00  -5.83364150   1.48356974
1596.00  -5.84557299   1.48631958
1597.00  -5.85751128   1.48907274
1598.00  -5.86945637   1.49182921
1599.00  -5.88140826   1.49458901
1600.00  -5.89336693   1.49735212
1601.00  -5.90533240   1.50011857
1602.00  -5.91730467   1.50288834
1603.00  -5.92928372   1.50566144
1604.00  -5.94126956   1.50843786
1605.00  -5.95326219   1.51121763
1606.00  -5.96526161   1.51400072
1607.00  -5.97726782   1.51678715
1608.00  -5.98928081   1.51957691
1609.00  -6.00130058   1.52237002
1610.00  -6.01332713   1.52516647
1611.00  -6.02536047   1.52796625
1612.00  -6.03740058   1.53076939
1613.00  -6.04944748   1.53357586
1614.00  -6.06150115   1.53638569
1615.00  -6.07356159   1.53919887
1616.00  -6.08562881   1.54201539
1617.00  -6.09770281   1.54483527
1618.00  -6.10978358   1.54765851
1619.00  -6.12187112   1.55048510
1620.00  -6.13396542   1.55331504
1621.00  -6.14606650   1.55614835
1622.00  -6.15817434   1.55898502
1623.00  -6.17028896   1.56182506
1624.00  -6.18241033   1.56466846
1625.00  -6.19453847   1.56751522
1626.00  -6.20667337   1.57036536
1627.00  -6.21881503   1.57321886
1628.00  -6.23096346   1.57607574
1629.00  -6.24311864   1.57893599
1630.00  -6.25528058   1.58179961
1631.00  -6.26744927   1.58466662
1632.00  -6.27962472   1.58753700
1633.00  -6.29180693   1.59041076
1634.00  -6.30399588   1.59328791
1635.00  -6.31619159   1.59616844
1636.00  -6.32839405   1.59905236
1637.00  -6.34060325   1.60193966
1638.00  -6.35281921   1.60483036
1639.00  -6.36504191   1.60772444
1640.00  -6.37727135   1.61062192
1641.00  -6.38950754   1.61352279
1642.00  -6.40175047   1.61642706
1643.00  -6.41400015   1.61933473
1644.00  -6.42625656   1.62224580
1645.00  -6.43851971   1.62516027
1646.00  -6.45078960   1.62807814
1647.00  -6.46306623   1.63099942
1648.00  -6.47534959   1.63392411
1649.00  -6.48763968   1.63685220
1650.00  -6.49993651   1.63978370
1651.00  -6.51224007   1.64271862
1652.00  -6.52455036   1.64565695
1653.00  -6.53686738   1.64859870
1654.00  -6.54919112   1.65154386
1655.00  -6.56152159   1.65449244
1656.00  -6.57385879   1.65744445
1657.00  -6.58620271   1.66039987
1658.00  -6.59855335   1.66335872
1659.00  -6.61091072   1.66632100
1660.00  -6.62327480   1.66928670
1661.00  -6.63564561   1.67225583
1662.00  -6.64802313   1.67522840
1663.00  -6.66040736   1.67820440
1664.00  -6.67279832   1.68118383
1665.00  -6.68519598   1.68416670
1666.00  -6.69760036   1.68715300
1667.00  -6.71001145   1.69014275
1668.00  -6.72242925   1.69313594
1669.00  -6.73485376   1.69613257
1670.00  -6.74728497   1.69913264
1671.00  -6.75972290   1.70213616
1672.00  -6.77216752   1.70514313
1673.00  -6.78461885   1.70815356
1674.00  -6.79707689   1.71116743
1675.00  -6.80954162   1.71418475
1676.00  -6.82201305   1.71720554
1677.00  -6.83449119   1.72022977
1678.00  -6.84697602   1.72325747
1679.00  -6.85946754   1.72628863
1680.00  -6.87196576   1.72932325
1681.00  -6.88447068   1.73236133
1682.00  -6.89698228   1.73540288
1683.00  -6.90950058   1.73844790
1684.00  -6.92202557   1.74149638
1685.00  -6.93455724   1.74454834
1686.00  -6.94709561   1.74760377
1687.00  -6.95964066   1.75066267
1688.00  -6.97219239   1.75372505
1689.00  -6.98475081   1.75679090
1690.00  -6.99731591   1.75986024
1691.00  -7.00988769   1.76293306
1692.00  -7.02246615   1.76600935
1693.00  -7.03505128   1.76908914
1694.00  -7.04764310   1.77217241
1695.00  -7.06024159   1.77525916
1696.00  -7.07284675   1.77834941
1697.00  -7.08545859   1.78144315
1698.00  -7.09807710   1.78454038
1699.00  -7.11070228   1.78764111
1700.00  -7.12333413   1.79074533
1701.00  -7.13597265   1.79385305
1702.00  -7.14861783   1.79696427
1703.00  -7.16126968   1.80007899
1704.00  -7.17392820   1.80319721
1705.00  -7.18659338   1.80631894
1706.00  -7.19926521   1.80944418
1707.00  -7.21194371   1.81257292
1708.00  -7.22462887   1.81570518
1709.00  -7.23732069   1.81884094
1710.00  -7.25001916   1.82198022
1711.00  -7.26272429   1.82512301
1712.00  -7.27543607   1.82826933
1713.00  -7.28815451   1.83141915
1714.00  -7.30087959   1.83457250
1715.00  -7.31361133   1.83772937
1716.00  -7.32634971   1.84088977
1717.00  -7.33909475   1.84405369
1718.00  -7.35184642   1.84722114
1719.00  -7.36460475   1.85039211
1720.00  -7.37736972   1.85356662
1721.00  -7.39014132   1.85674466
1722.00  -7.40291958   1.85992623
1723.00  -7.41570447   1.86311133
1724.00  -7.42849599   1.86629998
1725.00  -7.44129416   1.86949216
1726.00  -7.45409896   1.87268788
1727.00  -7.46691040   1.87588715
1728.00  -7.47972847   1.87908996
1729.00  -7.49255317   1.88229631
1730.00  -7.50538450   1.88550621
1731.00  -7.51822247   1.88871966
1732.00  -7.53106706   1.89193667
1733.00  -7.54391827   1.89515722
1734.00  -7.55677612   1.89838133
1735.00  -7.56964058   1.90160899
1736.00  -7.58251167   1.90484021
1737.00  -7.59538938   1.90807499
1738.00  -7.60827372   1.91131333
1739.00  -7.62116467   1.91455523
1740.00  -7.63406223   1.91780070
1741.00  -7.64696642   1.92104973
1742.00  -7.65987722   1.92430233
1743.00  -7.67279463   1.92755850
1744.00  -7.68571866   1.93081824
1745.00  -7.69864930   1.93408155
1746.00  -7.71158654   1.93734844
1747.00  -7.72453040   1.94061890
1748.00  -7.73748086   1.94389294
1749.00  -7.75043793   1.94717056
1750.00  -7.76340161   1.95045176
1751.00  -7.77637189   1.95373654
1752.00  -7.78934877   1.95702490
1753.00  -7.80233225   1.96031686
1754.00  -7.81532233   1.96361239
1755.00  -7.82831900   1.96691152
1756.00  -7.84132228   1.97021424
1757.00  -7.85433215   1.97352055
1758.00  -7.86734861   1.97683046
1759.00  -7.88037167   1.98014396
1760.00  -7.89340132   1.98346106
1761.00  -7.90643756   1.98678176
1762.00  -7.91948039   1.99010606
1763.00  -7.93252980   1.99343396
1764.00  -7.94558581   1.99676547
1765.00  -7.95864839   2.00010058
1766.00  -7.97171757   2.00343930
1767.00  -7.98479332   2.00678163
1768.00  -7.99787565   2.01012757
1769.00  -8.01096457   2.01347712
1770.00  -8.02406006   2.01683029
1771.00  -8.03716213   2.02018707
1772.00  -8.05027078   2.02354747
1773.00  -8.06338600   2.02691149
1774.00  -8.07650779   2.03027913
1775.00  -8.08963616   2.03365039
1776.00  -8.10277109   2.03702528
1777.00  -8.11591260   2.04040379
1778.00  -8.12906067   2.04378593
1779.00  -8.14221531   2.04717170
1780.00  -8.15537652   2.05056110
1781.00  -8.16854428   2.05395414
1782.00  -8.18171862   2.05735080
1783.00  -8.19489951   2.06075110
1784.00  -8.20808696   2.06415504
1785.00  -8.22128097   2.06756262
1786.00  -8.23448154   2.07097384
1787.00  -8.24768867   2.07438871
1788.00  -8.26090235   2.07780721
1789.00  -8.27412258   2.08122936
1790.00  -8.28734936   2.08465516
1791.00  -8.30058270   2.08808461
1792.00  -8.31382258   2.09151771
1793.00  -8.32706902   2.09495446
1794.00  -8.34032200   2.09839487
1795.00  -8.35358152   2.10183893
1796.00  -8.36684759   2.10528665
1797.00  -8.38012020   2.10873802
1798.00  -8.39339935   2.11219306
1799.00  -8.40668505   2.11565176
1800.00  -8.41997728   2.11911412
1801.00  -8.43327605   2.12258015
1802.00  -8.44658135   2.12604985
1803.00  -8.45989319   2.12952321
1804.00  -8.47321157   2.13300025
1805.00  -8.48653647   2.13648096
1806.00  -8.49986791   2.13996534
1807.00  -8.51320587   2.14345339
1808.00  -8.52655037   2.14694513
1809.00  -8.53990139   2.15044054
1810.00  -8.55325893   2.15393963
1811.00  -8.56662300   2.15744240
1812.00  -8.57999359   2.16094886
1813.00  -8.59337071   2.16445900
1814.00  -8.60675434   2.16797283
1815.00  -8.62014449   2.17149035
1816.00  -8.63354116   2.17501156
1817.00  -8.64694434   2.17853646
1818.00  -8.66035404   2.18206505
1819.00  -8.67377026   2.18559734
1820.00  -8.68719298   2.18913333
1821.00  -8.70062222   2.19267301
1822.00  -8.71405796   2.19621639
1823.00  -8.72750022   2.19976348
1824.00  -8.74094897   2.20331426
1825.00  -8.75440424   2.20686876
1826.00  -8.76786601   2.21042696
1827.00  -8.78133428   2.21398886
1828.00  -8.79480905   2.21755448
1829.00  -8.80829032   2.22112381
1830.00  -8.82177809   2.22469685
1831.00  -8.83527236   2.22827360
1832.00  -8.84877312   2.23185407
1833.00  -8.86228038   2.23543826
1834.00  -8.87579413   2.23902617
1835.00  -8.88931437   2.24261780
1836.00  -8.90284111   2.24621315
1837.00  -8.91637433   2.24981223
1838.00  -8.92991404   2.25341503
1839.00  -8.94346023   2.25702156
1840.00  -8.95701291   2.26063182
1841.00  -8.97057208   2.26424581
1842.00  -8.98413773   2.26786354
1843.00  -8.99770985   2.27148499
1844.00  -9.01128846   2.27511018
1845.00  -9.02487355   2.27873911
1846.00  -9.03846511   2.28237178
1847.00  -9.05206315   2.28600819
1848.00  -9.06566766   2.28964834
1849.00  -9.07927864   2.29329224
1850.00  -9.09289610   2.29693988
1851.00  -9.10652002   2.30059126
1852.00  -9.12015042   2.30424640
1853.00  -9.13378728   2.30790529
1854.00  -9.14743061   2.31156792
1855.00  -9.16108040   2.31523431
1856.00  -9.17473665   2.31890446
1857.00  -9.18839937   2.32257836
1858.00  -9.20206855   2.32625602
1859.00  -9.21574419   2.32993744
1860.00  -9.22942628   2.33362263
1861.00  -9.24311483   2.33731157
1862.00  -9.25680984   2.34100428
1863.00  -9.27051130   2.34470076
1864.00  -9.28421921   2.34840100
1865.00  -9.29793357   2.35210502
1866.00  -9.31165439   2.35581280
1867.00  -9.32538165   2.35952436
1868.00  -9.33911536   2.36323969
1869.00  -9.35285551   2.36695880
1870.00  -9.36660211   2.37068168
1871.00  -9.38035515   2.37440835
1872.00  -9.39411463   2.37813879
1873.00  -9.40788055   2.38187302
1874.00  -9.42165291   2.38561103
1875.00  -9.43543171   2.38935283
1876.00  -9.44921694   2.39309841
1877.00  -9.46300861   2.39684779
1878.00  -9.47680671   2.40060095
1879.00  -9.49061124   2.40435790
1880.00  -9.50442221   2.40811865
1881.00  -9.51823960   2.41188320
1882.00  -9.53206342   2.41565154
1883.00  -9.54589366   2.41942368
1884.00  -9.55973034   2.42319961
1885.00  -9.57357343   2.42697935
1886.00  -9.58742295   2.43076290
1887.00  -9.60127888   2.43455025
1888.00  -9.61514124   2.43834140
1889.00  -9.62901002   2.44213636
1890.00  -9.64288521   2.44593513
1891.00  -9.65676681   2.44973772
1892.00  -9.67065483   2.45354411
1893.00  -9.68454927   2.45735432
1894.00  -9.69845011   2.46116835
1895.00  -9.71235737   2.46498619
1896.00  -9.72627103   2.46880785
1897.00  -9.74019110   2.47263333
1898.00  -9.75411757   2.47646264
1899.00  -9.76805045   2.48029576
1900.00  -9.78198973   2.48413272
1901.00  -9.79593541   2.48797350
1902.00  -9.80988750   2.49181811
1903.00  -9.82384598   2.49566655
1904.00  -9.83781086   2.49951882
1905.00  -9.85178213   2.50337492
1906.00  -9.86575980   2.50723486
1907.00  -9.87974387   2.51109863
1908.00  -9.89373432   2.51496625
1909.00  -9.90773116   2.51883770
1910.00  -9.92173440   2.52271299
1911.00  -9.93574402   2.52659213
1912.00  -9.94976003   2.53047511
1913.00  -9.96378242   2.53436194
1914.00  -9.97781119   2.53825261
1915.00  -9.99184635   2.54214714
1916.00 -10.00588789   2.54604551
1917.00 -10.01993581   2.54994774
1918.00 -10.03399010   2.55385382
1919.00 -10.04805077   2.55776375
1920.00 -10.06211782   2.56167754
1921.00 -10.07619124   2.56559519
1922.00 -10.09027103   2.56951670
1923.00 -10.10435720   2.57344208
1924.00 -10.11844973   2.57737131
1925.00 -10.13254863   2.58130441
1926.00 -10.14665390   2.58524138
1927.00 -10.16076553   2.58918221
1928.00 -10.17488353   2.59312692
1929.00 -10.18900788   2.59707549
1930.00 -10.20313860   2.60102794
1931.00 -10.21727568   2.60498426
1932.00 -10.23141912   2.60894446
1933.00 -10.24556892   2.61290853
1934.00 -10.25972507   2.61687648
1935.00 -10.27388757   2.62084832
1936.00 -10.28805643   2.62482403
1937.00 -10.30223164   2.62880363
1938.00 -10.31641319   2.63278712
1939.00 -10.33060110   2.63677449
1940.00 -10.34479535   2.64076575
1941.00 -10.35899595   2.64476090
1942.00 -10.37320290   2.64875994
1943.00 -10.38741618   2.65276287
1944.00 -10.40163581   2.65676970
1945.00 -10.41586178   2.66078042
1946.00 -10.43009409   2.66479504
1947.00 -10.44433273   2.66881356
1948.00 -10.45857771   2.67283598
1949.00 -10.47282902   2.67686231
1950.00 -10.48708667   2.68089253
1951.00 -10.50135065   2.68492666
1952.00 -10.51562096   2.68896470
1953.00 -10.52989759   2.69300665
1954.00 -10.54418056   2.69705251
1955.00 -10.55846985   2.70110228
1956.00 -10.57276546   2.70515596
1957.00 -10.58706740   2.70921356
1958.00 -10.60137566   2.71327507
1959.00 -10.61569024   2.71734050
1960.00 -10.63001114   2.72140985
1961.00 -10.64433836   2.72548312
1962.00 -10.65867189   2.72956031
1963.00 -10.67301174   2.73364143
1964.00 -10.68735790   2.73772647
1965.00 -10.70171037   2.74181544
1966.00 -10.71606915   2.74590834
1967.00 -10.73043425   2.75000517
1968.00 -10.74480565   2.75410593
1969.00 -10.75918335   2.75821062
1970.00 -10.77356736   2.76231925
1971.00 -10.78795767   2.76643181
1972.00 -10.80235429   2.77054832
1973.00 -10.81675721   2.77466876
1974.00 -10.83116642   2.77879314
1975.00 -10.84558193   2.78292146
1976.00 -10.86000374   2.78705373
1977.00 -10.87443185   2.79118995
1978.00 -10.88886624   2.79533011
1979.00 -10.90330693   2.79947422
1980.00 -10.91775391   2.80362228
1981.00 -10.93220718   2.80777429
1982.00 -10.94666674   2.81193025
1983.00 -10.96113258   2.81609017
1984.00 -10.97560471   2.82025405
1985.00 -10.99008312   2.82442188
1986.00 -11.00456781   2.82859367
1987.00 -11.01905878   2.83276942
1988.00 -11.03355603   2.83694914
1989.00 -11.04805956   2.84113282
1990.00 -11.06256937   2.84532046
1991.00 -11.07708545   2.84951207
1992.00 -11.09160781   2.85370765
1993.00 -11.10613643   2.85790720
1994.00 -11.12067133   2.86211073
1995.00 -11.13521250   2.86631822
1996.00 -11.14975993   2.87052969
1997.00 -11.16431363   2.87474513
1998.00 -11.17887360   2.87896456
1999.00 -11.19343983   2.88318796
2000.00 -11.20801232   2.88741534
