wavelength(nm)         real         imag
200.00   3.83406815   0.00126008
201.00   3.83340743   0.00127907
202.00   3.83274341   0.00129825
203.00   3.83207611   0.00131762
204.00   3.83140551   0.00133718
205.00   3.83073163   0.00135694
206.00   3.83005446   0.00137689
207.00   3.82937399   0.00139703
208.00   3.82869024   0.00141737
209.00   3.82800319   0.00143791
210.00   3.82731286   0.00145864
211.00   3.82661923   0.00147957
212.00   3.82592232   0.00150070
213.00   3.82522211   0.00152204
214.00   3.82451862   0.00154357
215.00   3.82381183   0.00156530
216.00   3.82310176   0.00158724
217.00   3.82238840   0.00160938
218.00   3.82167175   0.00163172
219.00   3.82095181   0.00165428
220.00   3.82022858   0.00167703
221.00   3.81950206   0.00170000
222.00   3.81877225   0.00172317
223.00   3.81803915   0.00174656
224.00   3.81730277   0.00177015
225.00   3.81656309   0.00179396
226.00   3.81582013   0.00181798
227.00   3.81507388   0.00184221
228.00   3.81432434   0.00186666
229.00   3.81357151   0.00189132
230.00   3.81281539   0.00191619
231.00   3.81205599   0.00194129
232.00   3.81129330   0.00196660
233.00   3.81052731   0.00199213
234.00   3.80975805   0.00201788
235.00   3.80898549   0.00204386
236.00   3.80820964   0.00207005
237.00   3.80743051   0.00209647
238.00   3.80664809   0.00212311
239.00   3.80586238   0.00214997
240.00   3.80507339   0.00217706
241.00   3.80428110   0.00220438
242.00   3.80348553   0.00223193
243.00   3.80268668   0.00225970
244.00   3.80188453   0.00228770
245.00   3.80107910   0.00231593
246.00   3.80027038   0.00234440
247.00   3.79945838   0.00237309
248.00   3.79864308   0.00240202
249.00   3.79782450   0.00243119
250.00   3.79700264   0.00246058
251.00   3.79617749   0.00249022
252.00   3.79534905   0.00252009
253.00   3.79451732   0.00255020
254.00   3.79368231   0.00258054
255.00   3.79284401   0.00261113
256.00   3.79200243   0.00264196
257.00   3.79115756   0.00267303
258.00   3.79030941   0.00270434
259.00   3.78945796   0.00273589
260.00   3.78860324   0.00276769
261.00   3.78774523   0.00279974
262.00   3.78688393   0.00283203
263.00   3.78601934   0.00286457
264.00   3.78515148   0.00289735
265.00   3.78428032   0.00293039
266.00   3.78340588   0.00296367
267.00   3.78252816   0.00299721
268.00   3.78164715   0.00303100
269.00   3.78076286   0.00306504
270.00   3.77987528   0.00309933
271.00   3.77898442   0.00313388
272.00   3.77809027   0.00316869
273.00   3.77719284   0.00320375
274.00   3.77629212   0.00323907
275.00   3.77538812   0.00327464
276.00   3.77448083   0.00331048
277.00   3.77357026   0.00334658
278.00   3.77265641   0.00338294
279.00   3.77173928   0.00341956
280.00   3.77081885   0.00345644
281.00   3.76989515   0.00349359
282.00   3.76896816   0.00353100
283.00   3.76803789   0.00356868
284.00   3.76710434   0.00360663
285.00   3.76616750   0.00364484
286.00   3.76522738   0.00368332
287.00   3.76428397   0.00372207
288.00   3.76333729   0.00376110
289.00   3.76238732   0.00380039
290.00   3.76143407   0.00383996
291.00   3.76047753   0.00387980
292.00   3.75951771   0.00391991
293.00   3.75855461   0.00396030
294.00   3.75758823   0.00400097
295.00   3.75661857   0.00404191
296.00   3.75564562   0.00408313
297.00   3.75466939   0.00412463
298.00   3.75368988   0.00416642
299.00   3.75270709   0.00420848
300.00   3.75172101   0.00425082
301.00   3.75073166   0.00429345
302.00   3.74973902   0.00433636
303.00   3.74874310   0.00437955
304.00   3.74774390   0.00442303
305.00   3.74674142   0.00446680
306.00   3.74573566   0.00451086
307.00   3.74472662   0.00455520
308.00   3.74371429   0.00459983
309.00   3.74269869   0.00464475
310.00   3.74167980   0.00468997
311.00   3.74065764   0.00473548
312.00   3.73963219   0.00478127
313.00   3.73860347   0.00482737
314.00   3.73757146   0.00487376
315.00   3.73653618   0.00492044
316.00   3.73549761   0.00496742
317.00   3.73445576   0.00501470
318.00   3.73341064   0.00506228
319.00   3.73236223   0.00511016
320.00   3.73131055   0.00515834
321.00   3.73025559   0.00520682
322.00   3.72919734   0.00525560
323.00   3.72813582   0.00530469
324.00   3.72707102   0.00535408
325.00   3.72600294   0.00540377
326.00   3.72493158   0.00545378
327.00   3.72385694   0.00550409
328.00   3.72277903   0.00555470
329.00   3.72169783   0.00560563
330.00   3.72061336   0.00565687
331.00   3.71952561   0.00570841
332.00   3.71843458   0.00576027
333.00   3.71734027   0.00581245
334.00   3.71624269   0.00586493
335.00   3.71514183   0.00591773
336.00   3.71403769   0.00597085
337.00   3.71293027   0.00602428
338.00   3.71181958   0.00607803
339.00   3.71070560   0.00613210
340.00   3.70958835   0.00618649
341.00   3.70846783   0.00624120
342.00   3.70734403   0.00629623
343.00   3.70621695   0.00635158
344.00   3.70508659   0.00640726
345.00   3.70395296   0.00646326
346.00   3.70281605   0.00651958
347.00   3.70167586   0.00657623
348.00   3.70053240   0.00663321
349.00   3.69938567   0.00669051
350.00   3.69823565   0.00674814
351.00   3.69708236   0.00680611
352.00   3.69592580   0.00686440
353.00   3.69476596   0.00692303
354.00   3.69360284   0.00698198
355.00   3.69243645   0.00704128
356.00   3.69126679   0.00710090
357.00   3.69009385   0.00716086
358.00   3.68891763   0.00722116
359.00   3.68773814   0.00728179
360.00   3.68655538   0.00734277
361.00   3.68536934   0.00740408
362.00   3.68418003   0.00746573
363.00   3.68298744   0.00752772
364.00   3.68179158   0.00759005
365.00   3.68059244   0.00765273
366.00   3.67939003   0.00771575
367.00   3.67818435   0.00777911
368.00   3.67697539   0.00784283
369.00   3.67576316   0.00790688
370.00   3.67454766   0.00797129
371.00   3.67332888   0.00803604
372.00   3.67210683   0.00810114
373.00   3.67088151   0.00816659
374.00   3.66965292   0.00823240
375.00   3.66842105   0.00829855
376.00   3.66718591   0.00836506
377.00   3.66594750   0.00843192
378.00   3.66470581   0.00849914
379.00   3.66346086   0.00856671
380.00   3.66221263   0.00863464
381.00   3.66096113   0.00870293
382.00   3.65970636   0.00877157
383.00   3.65844831   0.00884058
384.00   3.65718700   0.00890995
385.00   3.65592241   0.00897967
386.00   3.65465455   0.00904976
387.00   3.65338343   0.00912022
388.00   3.65210903   0.00919103
389.00   3.65083136   0.00926222
390.00   3.64955042   0.00933376
391.00   3.64826621   0.00940568
392.00   3.64697873   0.00947796
393.00   3.64568797   0.00955062
394.00   3.64439395   0.00962364
395.00   3.64309666   0.00969703
396.00   3.64179610   0.00977080
397.00   3.64049227   0.00984493
398.00   3.63918517   0.00991944
399.00   3.63787480   0.00999433
400.00   3.63656117   0.01006959
401.00   3.63524426   0.01014523
402.00   3.63392408   0.01022124
403.00   3.63260064   0.01029763
404.00   3.63127393   0.01037440
405.00   3.62994394   0.01045155
406.00   3.62861069   0.01052909
407.00   3.62727418   0.01060700
408.00   3.62593439   0.01068530
409.00   3.62459134   0.01076398
410.00   3.62324502   0.01084304
411.00   3.62189543   0.01092250
412.00   3.62054257   0.01100233
413.00   3.61918645   0.01108256
414.00   3.61782706   0.01116317
415.00   3.61646440   0.01124418
416.00   3.61509847   0.01132557
417.00   3.61372928   0.01140735
418.00   3.61235683   0.01148953
419.00   3.61098110   0.01157210
420.00   3.60960211   0.01165506
421.00   3.60821985   0.01173842
422.00   3.60683433   0.01182218
423.00   3.60544554   0.01190633
424.00   3.60405349   0.01199088
425.00   3.60265817   0.01207583
426.00   3.60125959   0.01216117
427.00   3.59985774   0.01224692
428.00   3.59845262   0.01233307
429.00   3.59704425   0.01241962
430.00   3.59563260   0.01250658
431.00   3.59421769   0.01259394
432.00   3.59279952   0.01268170
433.00   3.59137808   0.01276987
434.00   3.58995338   0.01285845
435.00   3.58852542   0.01294744
436.00   3.58709419   0.01303683
437.00   3.58565970   0.01312664
438.00   3.58422194   0.01321685
439.00   3.58278092   0.01330748
440.00   3.58133664   0.01339852
441.00   3.57988910   0.01348997
442.00   3.57843829   0.01358184
443.00   3.57698422   0.01367412
444.00   3.57552688   0.01376682
445.00   3.57406629   0.01385994
446.00   3.57260243   0.01395347
447.00   3.57113531   0.01404742
448.00   3.56966493   0.01414180
449.00   3.56819129   0.01423659
450.00   3.56671438   0.01433181
451.00   3.56523422   0.01442745
452.00   3.56375079   0.01452351
453.00   3.56226410   0.01462000
454.00   3.56077415   0.01471691
455.00   3.55928094   0.01481425
456.00   3.55778447   0.01491202
457.00   3.55628474   0.01501022
458.00   3.55478175   0.01510884
459.00   3.55327550   0.01520790
460.00   3.55176599   0.01530738
461.00   3.55025321   0.01540730
462.00   3.54873718   0.01550765
463.00   3.54721789   0.01560844
464.00   3.54569535   0.01570966
465.00   3.54416954   0.01581132
466.00   3.54264047   0.01591341
467.00   3.54110814   0.01601594
468.00   3.53957256   0.01611891
469.00   3.53803372   0.01622232
470.00   3.53649162   0.01632617
471.00   3.53494626   0.01643046
472.00   3.53339764   0.01653519
473.00   3.53184576   0.01664037
474.00   3.53029063   0.01674599
475.00   3.52873224   0.01685205
476.00   3.52717059   0.01695856
477.00   3.52560569   0.01706552
478.00   3.52403753   0.01717293
479.00   3.52246611   0.01728078
480.00   3.52089144   0.01738909
481.00   3.51931351   0.01749784
482.00   3.51773232   0.01760705
483.00   3.51614788   0.01771671
484.00   3.51456018   0.01782682
485.00   3.51296922   0.01793739
486.00   3.51137501   0.01804841
487.00   3.50977755   0.01815989
488.00   3.50817683   0.01827182
489.00   3.50657285   0.01838422
490.00   3.50496562   0.01849707
491.00   3.50335514   0.01861038
492.00   3.50174140   0.01872415
493.00   3.50012440   0.01883839
494.00   3.49850415   0.01895309
495.00   3.49688065   0.01906825
496.00   3.49525390   0.01918387
497.00   3.49362389   0.01929996
498.00   3.49199062   0.01941652
499.00   3.49035411   0.01953355
500.00   3.48871434   0.01965104
501.00   3.48707132   0.01976900
502.00   3.48542504   0.01988743
503.00   3.48377552   0.02000634
504.00   3.48212274   0.02012571
505.00   3.48046670   0.02024556
506.00   3.47880742   0.02036588
507.00   3.47714488   0.02048668
508.00   3.47547910   0.02060795
509.00   3.47381006   0.02072969
510.00   3.47213777   0.02085192
511.00   3.47046223   0.02097462
512.00   3.46878344   0.02109781
513.00   3.46710139   0.02122147
514.00   3.46541610   0.02134562
515.00   3.46372756   0.02147024
516.00   3.46203576   0.02159535
517.00   3.46034072   0.02172095
518.00   3.45864243   0.02184702
519.00   3.45694088   0.02197359
520.00   3.45523609   0.02210064
521.00   3.45352805   0.02222818
522.00   3.45181676   0.02235620
523.00   3.45010222   0.02248472
524.00   3.44838443   0.02261373
525.00   3.44666340   0.02274322
526.00   3.44493911   0.02287321
527.00   3.44321158   0.02300370
528.00   3.44148080   0.02313467
529.00   3.43974677   0.02326615
530.00   3.43800949   0.02339811
531.00   3.43626897   0.02353058
532.00   3.43452520   0.02366354
533.00   3.43277818   0.02379700
534.00   3.43102791   0.02393096
535.00   3.42927440   0.02406542
536.00   3.42751765   0.02420039
537.00   3.42575764   0.02433585
538.00   3.42399439   0.02447182
539.00   3.42222790   0.02460829
540.00   3.42045815   0.02474527
541.00   3.41868517   0.02488275
542.00   3.41690894   0.02502074
543.00   3.41512946   0.02515924
544.00   3.41334674   0.02529825
545.00   3.41156077   0.02543777
546.00   3.40977156   0.02557779
547.00   3.40797910   0.02571833
548.00   3.40618340   0.02585938
549.00   3.40438446   0.02600095
550.00   3.40258227   0.02614303
551.00   3.40077684   0.02628562
552.00   3.39896817   0.02642873
553.00   3.39715625   0.02657236
554.00   3.39534109   0.02671651
555.00   3.39352269   0.02686117
556.00   3.39170104   0.02700635
557.00   3.38987615   0.02715206
558.00   3.38804802   0.02729828
559.00   3.38621665   0.02744503
560.00   3.38438204   0.02759231
561.00   3.38254418   0.02774010
562.00   3.38070309   0.02788843
563.00   3.37885875   0.02803727
564.00   3.37701117   0.02818665
565.00   3.37516035   0.02833655
566.00   3.37330629   0.02848699
567.00   3.37144899   0.02863795
568.00   3.36958845   0.02878944
569.00   3.36772467   0.02894147
570.00   3.36585765   0.02909402
571.00   3.36398739   0.02924712
572.00   3.36211389   0.02940074
573.00   3.36023715   0.02955490
574.00   3.35835718   0.02970960
575.00   3.35647396   0.02986484
576.00   3.35458751   0.03002061
577.00   3.35269782   0.03017692
578.00   3.35080489   0.03033377
579.00   3.34890872   0.03049117
580.00   3.34700931   0.03064910
581.00   3.34510667   0.03080758
582.00   3.34320079   0.03096660
583.00   3.34129167   0.03112617
584.00   3.33937931   0.03128628
585.00   3.33746372   0.03144694
586.00   3.33554489   0.03160814
587.00   3.33362283   0.03176989
588.00   3.33169753   0.03193220
589.00   3.32976899   0.03209505
590.00   3.32783722   0.03225845
591.00   3.32590222   0.03242241
592.00   3.32396397   0.03258692
593.00   3.32202250   0.03275198
594.00   3.32007779   0.03291760
595.00   3.31812984   0.03308377
596.00   3.31617866   0.03325050
597.00   3.31422424   0.03341778
598.00   3.31226660   0.03358563
599.00   3.31030571   0.03375403
600.00   3.30834160   0.03392300
601.00   3.30637425   0.03409252
602.00   3.30440367   0.03426261
603.00   3.30242985   0.03443326
604.00   3.30045280   0.03460447
605.00   3.29847252   0.03477625
606.00   3.29648901   0.03494860
607.00   3.29450227   0.03512151
608.00   3.29251229   0.03529499
609.00   3.29051908   0.03546903
610.00   3.28852264   0.03564365
611.00   3.28652297   0.03581883
612.00   3.28452007   0.03599459
613.00   3.28251394   0.03617092
614.00   3.28050458   0.03634782
615.00   3.27849198   0.03652530
616.00   3.27647616   0.03670335
617.00   3.27445711   0.03688198
618.00   3.27243483   0.03706118
619.00   3.27040932   0.03724096
620.00   3.26838057   0.03742132
621.00   3.26634861   0.03760226
622.00   3.26431341   0.03778378
623.00   3.26227498   0.03796588
624.00   3.26023332   0.03814856
625.00   3.25818844   0.03833182
626.00   3.25614033   0.03851567
627.00   3.25408899   0.03870011
628.00   3.25203443   0.03888513
629.00   3.24997663   0.03907073
630.00   3.24791561   0.03925693
631.00   3.24585137   0.03944371
632.00   3.24378389   0.03963108
633.00   3.24171319   0.03981904
634.00   3.23963927   0.04000759
635.00   3.23756212   0.04019674
636.00   3.23548174   0.04038648
637.00   3.23339814   0.04057681
638.00   3.23131131   0.04076774
639.00   3.22922126   0.04095926
640.00   3.22712798   0.04115138
641.00   3.22503148   0.04134409
642.00   3.22293175   0.04153741
643.00   3.22082880   0.04173132
644.00   3.21872263   0.04192584
645.00   3.21661323   0.04212096
646.00   3.21450061   0.04231667
647.00   3.21238476   0.04251300
648.00   3.21026570   0.04270992
649.00   3.20814341   0.04290745
650.00   3.20601790   0.04310559
651.00   3.20388916   0.04330433
652.00   3.20175721   0.04350368
653.00   3.19962203   0.04370364
654.00   3.19748363   0.04390421
655.00   3.19534201   0.04410538
656.00   3.19319717   0.04430717
657.00   3.19104911   0.04450958
658.00   3.18889782   0.04471259
659.00   3.18674332   0.04491622
660.00   3.18458560   0.04512046
661.00   3.18242465   0.04532532
662.00   3.18026049   0.04553080
663.00   3.17809311   0.04573689
664.00   3.17592251   0.04594360
665.00   3.17374869   0.04615094
666.00   3.17157165   0.04635889
667.00   3.16939139   0.04656746
668.00   3.16720791   0.04677666
669.00   3.16502122   0.04698647
670.00   3.16283131   0.04719692
671.00   3.16063818   0.04740798
672.00   3.15844183   0.04761968
673.00   3.15624227   0.04783199
674.00   3.15403949   0.04804494
675.00   3.15183349   0.04825852
676.00   3.14962428   0.04847272
677.00   3.14741185   0.04868756
678.00   3.14519621   0.04890302
679.00   3.14297735   0.04911912
680.00   3.14075527   0.04933585
681.00   3.13852998   0.04955322
682.00   3.13630147   0.04977122
683.00   3.13406975   0.04998985
684.00   3.13183482   0.05020913
685.00   3.12959667   0.05042903
686.00   3.12735531   0.05064958
687.00   3.12511073   0.05087077
688.00   3.12286294   0.05109260
689.00   3.12061194   0.05131507
690.00   3.11835772   0.05153818
691.00   3.11610029   0.05176193
692.00   3.11383965   0.05198633
693.00   3.11157580   0.05221137
694.00   3.10930873   0.05243706
695.00   3.10703845   0.05266340
696.00   3.10476497   0.05289038
697.00   3.10248827   0.05311801
698.00   3.10020836   0.05334629
699.00   3.09792523   0.05357522
700.00   3.09563890   0.05380480
701.00   3.09334936   0.05403503
702.00   3.09105661   0.05426592
703.00   3.08876064   0.05449746
704.00   3.08646147   0.05472966
705.00   3.08415909   0.05496251
706.00   3.08185350   0.05519601
707.00   3.07954470   0.05543018
708.00   3.07723270   0.05566500
709.00   3.07491748   0.05590048
710.00   3.07259906   0.05613662
711.00   3.07027743   0.05637343
712.00   3.06795259   0.05661089
713.00   3.06562454   0.05684902
714.00   3.06329329   0.05708781
715.00   3.06095883   0.05732727
716.00   3.05862116   0.05756739
717.00   3.05628029   0.05780818
718.00   3.05393621   0.05804963
719.00   3.05158893   0.05829176
720.00   3.04923844   0.05853455
721.00   3.04688474   0.05877801
722.00   3.04452784   0.05902215
723.00   3.04216774   0.05926695
724.00   3.03980443   0.05951243
725.00   3.03743792   0.05975858
726.00   3.03506820   0.06000541
727.00   3.03269528   0.06025291
728.00   3.03031916   0.06050109
729.00   3.02793983   0.06074995
730.00   3.02555730   0.06099948
731.00   3.02317156   0.06124970
732.00   3.02078263   0.06150059
733.00   3.01839049   0.06175216
734.00   3.01599515   0.06200442
735.00   3.01359661   0.06225736
736.00   3.01119487   0.06251098
737.00   3.00878992   0.06276529
738.00   3.00638178   0.06302028
739.00   3.00397043   0.06327596
740.00   3.00155589   0.06353232
741.00   2.99913814   0.06378937
742.00   2.99671720   0.06404712
743.00   2.99429305   0.06430555
744.00   2.99186571   0.06456467
745.00   2.98943517   0.06482449
746.00   2.98700142   0.06508499
747.00   2.98456448   0.06534619
748.00   2.98212434   0.06560809
749.00   2.97968101   0.06587068
750.00   2.97723447   0.06613396
751.00   2.97478474   0.06639795
752.00   2.97233181   0.06666263
753.00   2.96987569   0.06692801
754.00   2.96741636   0.06719409
755.00   2.96495384   0.06746087
756.00   2.96248813   0.06772835
757.00   2.96001922   0.06799654
758.00   2.95754711   0.06826542
759.00   2.95507181   0.06853502
760.00   2.95259331   0.06880531
761.00   2.95011162   0.06907632
762.00   2.94762673   0.06934803
763.00   2.94513865   0.06962044
764.00   2.94264738   0.06989357
765.00   2.94015291   0.07016741
766.00   2.93765525   0.07044195
767.00   2.93515439   0.07071721
768.00   2.93265035   0.07099318
769.00   2.93014310   0.07126986
770.00   2.92763267   0.07154726
771.00   2.92511905   0.07182537
772.00   2.92260223   0.07210420
773.00   2.92008222   0.07238375
774.00   2.91755902   0.07266401
775.00   2.91503263   0.07294499
776.00   2.91250305   0.07322669
777.00   2.90997028   0.07350911
778.00   2.90743431   0.07379226
779.00   2.90489516   0.07407612
780.00   2.90235282   0.07436071
781.00   2.89980729   0.07464602
782.00   2.89725857   0.07493206
783.00   2.89470666   0.07521882
784.00   2.89215156   0.07550631
785.00   2.88959328   0.07579452
786.00   2.88703180   0.07608347
787.00   2.88446714   0.07637314
788.00   2.88189929   0.07666354
789.00   2.87932826   0.07695468
790.00   2.87675403   0.07724655
791.00   2.87417662   0.07753915
792.00   2.87159603   0.07783248
793.00   2.86901224   0.07812655
794.00   2.86642528   0.07842135
795.00   2.86383512   0.07871689
796.00   2.86124178   0.07901317
797.00   2.85864526   0.07931018
798.00   2.85604555   0.07960794
799.00   2.85344266   0.07990643
800.00   2.85083658   0.08020567
801.00   2.84822732   0.08050565
802.00   2.84561488   0.08080637
803.00   2.84299925   0.08110783
804.00   2.84038044   0.08141004
805.00   2.83775845   0.08171299
806.00   2.83513327   0.08201669
807.00   2.83250491   0.08232114
808.00   2.82987337   0.08262633
809.00   2.82723865   0.08293227
810.00   2.82460075   0.08323897
811.00   2.82195967   0.08354641
812.00   2.81931540   0.08385461
813.00   2.81666796   0.08416355
814.00   2.81401733   0.08447326
815.00   2.81136353   0.08478371
816.00   2.80870654   0.08509492
817.00   2.80604638   0.08540689
818.00   2.80338304   0.08571961
819.00   2.80071652   0.08603309
820.00   2.79804682   0.08634733
821.00   2.79537394   0.08666233
822.00   2.79269788   0.08697809
823.00   2.79001865   0.08729461
824.00   2.78733624   0.08761190
825.00   2.78465065   0.08792994
826.00   2.78196189   0.08824876
827.00   2.77926995   0.08856833
828.00   2.77657483   0.08888867
829.00   2.77387654   0.08920978
830.00   2.77117507   0.08953166
831.00   2.76847042   0.08985430
832.00   2.76576261   0.09017771
833.00   2.76305161   0.09050190
834.00   2.76033744   0.09082685
835.00   2.75762010   0.09115258
836.00   2.75489959   0.09147908
837.00   2.75217590   0.09180635
838.00   2.74944904   0.09213440
839.00   2.74671900   0.09246322
840.00   2.74398579   0.09279282
841.00   2.74124941   0.09312320
842.00   2.73850986   0.09345436
843.00   2.73576714   0.09378629
844.00   2.73302124   0.09411901
845.00   2.73027218   0.09445250
846.00   2.72751994   0.09478678
847.00   2.72476453   0.09512184
848.00   2.72200595   0.09545768
849.00   2.71924420   0.09579431
850.00   2.71647929   0.09613172
851.00   2.71371120   0.09646992
852.00   2.71093994   0.09680891
853.00   2.70816552   0.09714868
854.00   2.70538793   0.09748924
855.00   2.70260716   0.09783060
856.00   2.69982323   0.09817274
857.00   2.69703614   0.09851567
858.00   2.69424587   0.09885940
859.00   2.69145244   0.09920392
860.00   2.68865584   0.09954924
861.00   2.68585608   0.09989535
862.00   2.68305315   0.10024225
863.00   2.68024705   0.10058995
864.00   2.67743779   0.10093845
865.00   2.67462536   0.10128775
866.00   2.67180977   0.10163785
867.00   2.66899101   0.10198875
868.00   2.66616909   0.10234045
869.00   2.66334401   0.10269295
870.00   2.66051576   0.10304625
871.00   2.65768435   0.10340036
872.00   2.65484977   0.10375527
873.00   2.65201203   0.10411099
874.00   2.64917113   0.10446751
875.00   2.64632707   0.10482485
876.00   2.64347985   0.10518299
877.00   2.64062946   0.10554194
878.00   2.63777592   0.10590170
879.00   2.63491921   0.10626227
880.00   2.63205934   0.10662365
881.00   2.62919631   0.10698584
882.00   2.62633012   0.10734885
883.00   2.62346077   0.10771267
884.00   2.62058827   0.10807731
885.00   2.61771260   0.10844276
886.00   2.61483377   0.10880904
887.00   2.61195179   0.10917612
888.00   2.60906665   0.10954403
889.00   2.60617835   0.10991276
890.00   2.60328689   0.11028231
891.00   2.60039227   0.11065268
892.00   2.59749450   0.11102387
893.00   2.59459357   0.11139588
894.00   2.59168949   0.11176872
895.00   2.58878225   0.11214239
896.00   2.58587185   0.11251688
897.00   2.58295830   0.11289219
898.00   2.58004159   0.11326834
899.00   2.57712173   0.11364531
900.00   2.57419871   0.11402311
901.00   2.57127254   0.11440174
902.00   2.56834322   0.11478120
903.00   2.56541074   0.11516150
904.00   2.56247511   0.11554263
905.00   2.55953633   0.11592459
906.00   2.55659439   0.11630738
907.00   2.55364930   0.11669102
908.00   2.55070106   0.11707548
909.00   2.54774967   0.11746079
910.00   2.54479513   0.11784693
911.00   2.54183743   0.11823391
912.00   2.53887659   0.11862174
913.00   2.53591259   0.11901040
914.00   2.53294545   0.11939990
915.00   2.52997515   0.11979025
916.00   2.52700171   0.12018144
917.00   2.52402512   0.12057347
918.00   2.52104538   0.12096635
919.00   2.51806249   0.12136008
920.00   2.51507645   0.12175465
921.00   2.51208726   0.12215007
922.00   2.50909493   0.12254634
923.00   2.50609945   0.12294346
924.00   2.50310082   0.12334143
925.00   2.50009904   0.12374025
926.00   2.49709412   0.12413992
927.00   2.49408606   0.12454044
928.00   2.49107485   0.12494182
929.00   2.48806049   0.12534405
930.00   2.48504299   0.12574714
931.00   2.48202234   0.12615109
932.00   2.47899855   0.12655589
933.00   2.47597162   0.12696155
934.00   2.47294154   0.12736807
935.00   2.46990832   0.12777545
936.00   2.46687195   0.12818369
937.00   2.46383245   0.12859279
938.00   2.46078980   0.12900276
939.00   2.45774401   0.12941359
940.00   2.45469507   0.12982528
941.00   2.45164300   0.13023784
942.00   2.44858778   0.13065126
943.00   2.44552943   0.13106555
944.00   2.44246793   0.13148071
945.00   2.43940330   0.13189674
946.00   2.43633552   0.13231364
947.00   2.43326461   0.13273140
948.00   2.43019055   0.13315004
949.00   2.42711336   0.13356955
950.00   2.42403303   0.13398994
951.00   2.42094956   0.13441119
952.00   2.41786295   0.13483333
953.00   2.41477321   0.13525633
954.00   2.41168033   0.13568022
955.00   2.40858431   0.13610498
956.00   2.40548515   0.13653062
957.00   2.40238286   0.13695714
958.00   2.39927744   0.13738454
959.00   2.39616887   0.13781282
960.00   2.39305718   0.13824198
961.00   2.38994235   0.13867202
962.00   2.38682438   0.13910295
963.00   2.38370328   0.13953476
964.00   2.38057905   0.13996746
965.00   2.37745168   0.14040104
966.00   2.37432118   0.14083551
967.00   2.37118755   0.14127087
968.00   2.36805078   0.14170712
969.00   2.36491088   0.14214425
970.00   2.36176786   0.14258228
971.00   2.35862169   0.14302120
972.00   2.35547240   0.14346101
973.00   2.35231998   0.14390171
974.00   2.34916443   0.14434330
975.00   2.34600575   0.14478580
976.00   2.34284393   0.14522918
977.00   2.33967899   0.14567347
978.00   2.33651092   0.14611865
979.00   2.33333972   0.14656473
980.00   2.33016539   0.14701170
981.00   2.32698794   0.14745958
982.00   2.32380736   0.14790836
983.00   2.32062364   0.14835804
984.00   2.31743681   0.14880862
985.00   2.31424684   0.14926011
986.00   2.31105375   0.14971250
987.00   2.30785754   0.15016579
988.00   2.30465819   0.15061999
989.00   2.30145573   0.15107510
990.00   2.29825013   0.15153112
991.00   2.29504142   0.15198804
992.00   2.29182957   0.15244587
993.00   2.28861461   0.15290462
994.00   2.28539652   0.15336427
995.00   2.28217531   0.15382484
996.00   2.27895097   0.15428632
997.00   2.27572352   0.15474871
998.00   2.27249294   0.15521202
999.00   2.26925923   0.15567625
1000.00   2.26602241   0.15614139
1001.00   2.26278247   0.15660744
1002.00   2.25953940   0.15707442
1003.00   2.25629322   0.15754231
1004.00   2.25304391   0.15801113
1005.00   2.24979149   0.15848086
1006.00   2.24653594   0.15895152
1007.00   2.24327728   0.15942309
1008.00   2.24001549   0.15989560
1009.00   2.23675059   0.16036902
1010.00   2.23348257   0.16084337
1011.00   2.23021144   0.16131865
1012.00   2.22693718   0.16179485
1013.00   2.22365981   0.16227198
1014.00   2.22037932   0.16275004
1015.00   2.21709572   0.16322903
1016.00   2.21380900   0.16370894
1017.00   2.21051916   0.16418979
1018.00   2.20722621   0.16467157
1019.00   2.20393015   0.16515429
1020.00   2.20063097   0.16563793
1021.00   2.19732867   0.16612252
1022.00   2.19402326   0.16660803
1023.00   2.19071474   0.16709448
1024.00   2.18740310   0.16758187
1025.00   2.18408836   0.16807020
1026.00   2.18077050   0.16855947
1027.00   2.17744952   0.16904967
1028.00   2.17412544   0.16954082
1029.00   2.17079824   0.17003291
1030.00   2.16746794   0.17052593
1031.00   2.16413452   0.17101991
1032.00   2.16079799   0.17151482
1033.00   2.15745835   0.17201068
1034.00   2.15411561   0.17250749
1035.00   2.15076975   0.17300524
1036.00   2.14742079   0.17350394
1037.00   2.14406871   0.17400359
1038.00   2.14071353   0.17450419
1039.00   2.13735524   0.17500573
1040.00   2.13399384   0.17550823
1041.00   2.13062934   0.17601168
1042.00   2.12726173   0.17651608
1043.00   2.12389101   0.17702143
1044.00   2.12051719   0.17752774
1045.00   2.11714026   0.17803501
1046.00   2.11376022   0.17854322
1047.00   2.11037708   0.17905240
1048.00   2.10699084   0.17956253
1049.00   2.10360149   0.18007363
1050.00   2.10020904   0.18058568
1051.00   2.09681348   0.18109869
1052.00   2.09341482   0.18161266
1053.00   2.09001306   0.18212759
1054.00   2.08660820   0.18264349
1055.00   2.08320023   0.18316035
1056.00   2.07978916   0.18367817
1057.00   2.07637499   0.18419696
1058.00   2.07295772   0.18471672
1059.00   2.06953735   0.18523744
1060.00   2.06611388   0.18575913
1061.00   2.06268731   0.18628179
1062.00   2.05925764   0.18680541
1063.00   2.05582487   0.18733001
1064.00   2.05238900   0.18785558
1065.00   2.04895004   0.18838212
1066.00   2.04550797   0.18890964
1067.00   2.04206281   0.18943812
1068.00   2.03861455   0.18996759
1069.00   2.03516319   0.19049802
1070.00   2.03170874   0.19102944
1071.00   2.02825119   0.19156183
1072.00   2.02479054   0.19209520
1073.00   2.02132680   0.19262954
1074.00   2.01785996   0.19316487
1075.00   2.01439003   0.19370118
1076.00   2.01091701   0.19423847
1077.00   2.00744089   0.19477674
1078.00   2.00396167   0.19531599
1079.00   2.00047937   0.19585623
1080.00   1.99699397   0.19639745
1081.00   1.99350548   0.19693966
1082.00   1.99001389   0.19748286
1083.00   1.98651922   0.19802704
1084.00   1.98302145   0.19857221
1085.00   1.97952059   0.19911837
1086.00   1.97601664   0.19966552
1087.00   1.97250960   0.20021366
1088.00   1.96899947   0.20076279
1089.00   1.96548625   0.20131291
1090.00   1.96196995   0.20186403
1091.00   1.95845055   0.20241614
1092.00   1.95492806   0.20296925
1093.00   1.95140249   0.20352335
1094.00   1.94787383   0.20407845
1095.00   1.94434208   0.20463454
1096.00   1.94080725   0.20519164
1097.00   1.93726932   0.20574973
1098.00   1.93372831   0.20630882
1099.00   1.93018422   0.20686892
1100.00   1.92663704   0.20743001
1101.00   1.92308678   0.20799211
1102.00   1.91953343   0.20855521
1103.00   1.91597699   0.20911932
1104.00   1.91241748   0.20968443
1105.00   1.90885487   0.21025054
1106.00   1.90528919   0.21081767
1107.00   1.90172042   0.21138580
1108.00   1.89814857   0.21195494
1109.00   1.89457364   0.21252509
1110.00   1.89099563   0.21309624
1111.00   1.88741453   0.21366841
1112.00   1.88383036   0.21424159
1113.00   1.88024310   0.21481579
1114.00   1.87665276   0.21539100
1115.00   1.87305935   0.21596722
1116.00   1.86946285   0.21654446
1117.00   1.86586328   0.21712271
1118.00   1.86226062   0.21770198
1119.00   1.85865489   0.21828227
1120.00   1.85504608   0.21886357
1121.00   1.85143420   0.21944590
1122.00   1.84781923   0.22002924
1123.00   1.84420119   0.22061361
1124.00   1.84058007   0.22119900
1125.00   1.83695588   0.22178541
1126.00   1.83332861   0.22237284
1127.00   1.82969827   0.22296130
1128.00   1.82606485   0.22355079
1129.00   1.82242835   0.22414130
1130.00   1.81878879   0.22473284
1131.00   1.81514615   0.22532540
1132.00   1.81150043   0.22591900
1133.00   1.80785165   0.22651362
1134.00   1.80419979   0.22710927
1135.00   1.80054485   0.22770596
1136.00   1.79688685   0.22830368
1137.00   1.79322578   0.22890243
1138.00   1.78956163   0.22950221
1139.00   1.78589441   0.23010303
1140.00   1.78222413   0.23070488
1141.00   1.77855077   0.23130777
1142.00   1.77487434   0.23191170
1143.00   1.77119485   0.23251666
1144.00   1.76751229   0.23312266
1145.00   1.76382666   0.23372971
1146.00   1.76013796   0.23433779
1147.00   1.75644619   0.23494691
1148.00   1.75275135   0.23555708
1149.00   1.74905345   0.23616829
1150.00   1.74535249   0.23678054
1151.00   1.74164845   0.23739384
1152.00   1.73794136   0.23800818
1153.00   1.73423119   0.23862357
1154.00   1.73051796   0.23924000
1155.00   1.72680167   0.23985749
1156.00   1.72308232   0.24047602
1157.00   1.71935990   0.24109560
1158.00   1.71563441   0.24171623
1159.00   1.71190587   0.24233792
1160.00   1.70817426   0.24296065
1161.00   1.70443959   0.24358444
1162.00   1.70070186   0.24420928
1163.00   1.69696106   0.24483518
1164.00   1.69321721   0.24546213
1165.00   1.68947029   0.24609014
1166.00   1.68572032   0.24671921
1167.00   1.68196729   0.24734933
1168.00   1.67821119   0.24798051
1169.00   1.67445204   0.24861275
1170.00   1.67068983   0.24924605
1171.00   1.66692456   0.24988042
1172.00   1.66315624   0.25051584
1173.00   1.65938485   0.25115233
1174.00   1.65561041   0.25178988
1175.00   1.65183292   0.25242850
1176.00   1.64805237   0.25306818
1177.00   1.64426876   0.25370893
1178.00   1.64048210   0.25435074
1179.00   1.63669238   0.25499363
1180.00   1.63289960   0.25563758
1181.00   1.62910378   0.25628260
1182.00   1.62530490   0.25692869
1183.00   1.62150297   0.25757585
1184.00   1.61769798   0.25822409
1185.00   1.61388994   0.25887339
1186.00   1.61007885   0.25952378
1187.00   1.60626471   0.26017523
1188.00   1.60244751   0.26082776
1189.00   1.59862727   0.26148137
1190.00   1.59480398   0.26213605
1191.00   1.59097763   0.26279182
1192.00   1.58714824   0.26344866
1193.00   1.58331579   0.26410658
1194.00   1.57948030   0.26476558
1195.00   1.57564176   0.26542566
1196.00   1.57180017   0.26608682
1197.00   1.56795554   0.26674907
1198.00   1.56410785   0.26741240
1199.00   1.56025712   0.26807681
1200.00   1.55640335   0.26874231
1201.00   1.55254652   0.26940890
1202.00   1.54868666   0.27007657
1203.00   1.54482374   0.27074533
1204.00   1.54095779   0.27141518
1205.00   1.53708878   0.27208612
1206.00   1.53321674   0.27275815
1207.00   1.52934165   0.27343127
1208.00   1.52546351   0.27410548
1209.00   1.52158234   0.27478078
1210.00   1.51769812   0.27545718
1211.00   1.51381086   0.27613467
1212.00   1.50992056   0.27681326
1213.00   1.50602722   0.27749294
1214.00   1.50213084   0.27817372
1215.00   1.49823141   0.27885560
1216.00   1.49432895   0.27953858
1217.00   1.49042345   0.28022265
1218.00   1.48651491   0.28090783
1219.00   1.48260333   0.28159411
1220.00   1.47868871   0.28228148
1221.00   1.47477105   0.28296997
1222.00   1.47085036   0.28365955
1223.00   1.46692663   0.28435024
1224.00   1.46299986   0.28504203
1225.00   1.45907006   0.28573493
1226.00   1.45513722   0.28642894
1227.00   1.45120135   0.28712405
1228.00   1.44726244   0.28782027
1229.00   1.44332049   0.28851761
1230.00   1.43937552   0.28921605
1231.00   1.43542751   0.28991560
1232.00   1.43147646   0.29061626
1233.00   1.42752239   0.29131804
1234.00   1.42356528   0.29202093
1235.00   1.41960513   0.29272493
1236.00   1.41564196   0.29343005
1237.00   1.41167576   0.29413629
1238.00   1.40770652   0.29484364
1239.00   1.40373426   0.29555211
1240.00   1.39975896   0.29626169
1241.00   1.39578064   0.29697240
1242.00   1.39179928   0.29768422
1243.00   1.38781490   0.29839717
1244.00   1.38382749   0.29911124
1245.00   1.37983705   0.29982643
1246.00   1.37584359   0.30054274
1247.00   1.37184710   0.30126018
1248.00   1.36784758   0.30197874
1249.00   1.36384503   0.30269842
1250.00   1.35983946   0.30341924
1251.00   1.35583086   0.30414118
1252.00   1.35181924   0.30486425
1253.00   1.34780460   0.30558844
1254.00   1.34378693   0.30631377
1255.00   1.33976623   0.30704023
1256.00   1.33574252   0.30776782
1257.00   1.33171578   0.30849654
1258.00   1.32768602   0.30922639
1259.00   1.32365323   0.30995738
1260.00   1.31961743   0.31068950
1261.00   1.31557860   0.31142276
1262.00   1.31153676   0.31215715
1263.00   1.30749189   0.31289268
1264.00   1.30344400   0.31362935
1265.00   1.29939310   0.31436716
1266.00   1.29533917   0.31510611
1267.00   1.29128223   0.31584619
1268.00   1.28722227   0.31658742
1269.00   1.28315929   0.31732979
1270.00   1.27909329   0.31807330
1271.00   1.27502428   0.31881796
1272.00   1.27095225   0.31956376
1273.00   1.26687720   0.32031070
1274.00   1.26279914   0.32105879
1275.00   1.25871807   0.32180803
1276.00   1.25463397   0.32255842
1277.00   1.25054687   0.32330995
1278.00   1.24645675   0.32406263
1279.00   1.24236362   0.32481647
1280.00   1.23826747   0.32557145
1281.00   1.23416832   0.32632759
1282.00   1.23006615   0.32708487
1283.00   1.22596096   0.32784332
1284.00   1.22185277   0.32860291
1285.00   1.21774157   0.32936366
1286.00   1.21362735   0.33012557
1287.00   1.20951013   0.33088863
1288.00   1.20538990   0.33165285
1289.00   1.20126665   0.33241823
1290.00   1.19714040   0.33318476
1291.00   1.19301114   0.33395246
1292.00   1.18887887   0.33472131
1293.00   1.18474360   0.33549133
1294.00   1.18060532   0.33626251
1295.00   1.17646403   0.33703486
1296.00   1.17231974   0.33780836
1297.00   1.16817244   0.33858303
1298.00   1.16402213   0.33935887
1299.00   1.15986882   0.34013587
1300.00   1.15571251   0.34091404
1301.00   1.15155319   0.34169338
1302.00   1.14739087   0.34247389
1303.00   1.14322554   0.34325556
1304.00   1.13905722   0.34403841
1305.00   1.13488589   0.34482243
1306.00   1.13071156   0.34560762
1307.00   1.12653422   0.34639398
1308.00   1.12235389   0.34718151
1309.00   1.11817056   0.34797022
1310.00   1.11398422   0.34876011
1311.00   1.10979489   0.34955117
1312.00   1.10560256   0.35034340
1313.00   1.10140723   0.35113682
1314.00   1.09720890   0.35193141
1315.00   1.09300757   0.35272718
1316.00   1.08880325   0.35352413
1317.00   1.08459593   0.35432226
1318.00   1.08038561   0.35512158
1319.00   1.07617230   0.35592207
1320.00   1.07195599   0.35672375
1321.00   1.06773669   0.35752662
1322.00   1.06351439   0.35833066
1323.00   1.05928909   0.35913590
1324.00   1.05506081   0.35994232
1325.00   1.05082953   0.36074992
1326.00   1.04659525   0.36155872
1327.00   1.04235799   0.36236870
1328.00   1.03811773   0.36317987
1329.00   1.03387448   0.36399224
1330.00   1.02962824   0.36480579
1331.00   1.02537901   0.36562054
1332.00   1.02112679   0.36643648
1333.00   1.01687158   0.36725361
1334.00   1.01261338   0.36807193
1335.00   1.00835219   0.36889146
1336.00   1.00408801   0.36971217
1337.00   0.99982084   0.37053409
1338.00   0.99555069   0.37135720
1339.00   0.99127755   0.37218151
1340.00   0.98700142   0.37300702
1341.00   0.98272231   0.37383373
1342.00   0.97844021   0.37466164
1343.00   0.97415512   0.37549075
1344.00   0.96986705   0.37632106
1345.00   0.96557600   0.37715258
1346.00   0.96128196   0.37798530
1347.00   0.95698494   0.37881923
1348.00   0.95268493   0.37965436
1349.00   0.94838195   0.38049070
1350.00   0.94407598   0.38132824
1351.00   0.93976702   0.38216699
1352.00   0.93545509   0.38300695
1353.00   0.93114018   0.38384812
1354.00   0.92682228   0.38469051
1355.00   0.92250141   0.38553410
1356.00   0.91817755   0.38637890
1357.00   0.91385072   0.38722492
1358.00   0.90952091   0.38807215
1359.00   0.90518812   0.38892059
1360.00   0.90085235   0.38977025
1361.00   0.89651361   0.39062113
1362.00   0.89217188   0.39147322
1363.00   0.88782719   0.39232653
1364.00   0.88347951   0.39318105
1365.00   0.87912886   0.39403680
1366.00   0.87477524   0.39489377
1367.00   0.87041864   0.39575195
1368.00   0.86605907   0.39661136
1369.00   0.86169652   0.39747199
1370.00   0.85733100   0.39833385
1371.00   0.85296251   0.39919692
1372.00   0.84859104   0.40006123
1373.00   0.84421660   0.40092675
1374.00   0.83983920   0.40179351
1375.00   0.83545882   0.40266149
1376.00   0.83107547   0.40353070
1377.00   0.82668915   0.40440113
1378.00   0.82229986   0.40527280
1379.00   0.81790760   0.40614570
1380.00   0.81351237   0.40701982
1381.00   0.80911418   0.40789518
1382.00   0.80471301   0.40877177
1383.00   0.80030888   0.40964960
1384.00   0.79590179   0.41052866
1385.00   0.79149172   0.41140895
1386.00   0.78707869   0.41229048
1387.00   0.78266270   0.41317324
1388.00   0.77824374   0.41405725
1389.00   0.77382182   0.41494249
1390.00   0.76939693   0.41582897
1391.00   0.76496908   0.41671669
1392.00   0.76053826   0.41760565
1393.00   0.75610448   0.41849585
1394.00   0.75166774   0.41938729
1395.00   0.74722804   0.42027998
1396.00   0.74278538   0.42117391
1397.00   0.73833975   0.42206908
1398.00   0.73389117   0.42296550
1399.00   0.72943963   0.42386316
1400.00   0.72498512   0.42476208
1401.00   0.72052766   0.42566223
1402.00   0.71606724   0.42656364
1403.00   0.71160386   0.42746630
1404.00   0.70713752   0.42837020
1405.00   0.70266823   0.42927536
1406.00   0.69819598   0.43018177
1407.00   0.69372077   0.43108943
1408.00   0.68924261   0.43199834
1409.00   0.68476149   0.43290851
1410.00   0.68027742   0.43381993
1411.00   0.67579039   0.43473261
1412.00   0.67130041   0.43564654
1413.00   0.66680748   0.43656173
1414.00   0.66231159   0.43747818
1415.00   0.65781275   0.43839588
1416.00   0.65331096   0.43931485
1417.00   0.64880621   0.44023507
1418.00   0.64429852   0.44115656
1419.00   0.63978787   0.44207931
1420.00   0.63527428   0.44300332
1421.00   0.63075773   0.44392859
1422.00   0.62623824   0.44485513
1423.00   0.62171580   0.44578293
1424.00   0.61719041   0.44671200
1425.00   0.61266207   0.44764233
1426.00   0.60813078   0.44857393
1427.00   0.60359655   0.44950680
1428.00   0.59905937   0.45044094
1429.00   0.59451924   0.45137635
1430.00   0.58997617   0.45231302
1431.00   0.58543016   0.45325097
1432.00   0.58088120   0.45419019
1433.00   0.57632929   0.45513068
1434.00   0.57177445   0.45607245
1435.00   0.56721665   0.45701549
1436.00   0.56265592   0.45795980
1437.00   0.55809225   0.45890539
1438.00   0.55352563   0.45985226
1439.00   0.54895607   0.46080040
1440.00   0.54438357   0.46174982
1441.00   0.53980813   0.46270052
1442.00   0.53522975   0.46365250
1443.00   0.53064843   0.46460576
1444.00   0.52606417   0.46556031
1445.00   0.52147698   0.46651613
1446.00   0.51688684   0.46747324
1447.00   0.51229377   0.46843162
1448.00   0.50769777   0.46939130
1449.00   0.50309882   0.47035226
1450.00   0.49849694   0.47131450
1451.00   0.49389212   0.47227803
1452.00   0.48928437   0.47324285
1453.00   0.48467369   0.47420896
1454.00   0.48006007   0.47517635
1455.00   0.47544351   0.47614504
1456.00   0.47082403   0.47711501
1457.00   0.46620161   0.47808628
1458.00   0.46157626   0.47905884
1459.00   0.45694797   0.48003269
1460.00   0.45231676   0.48100783
1461.00   0.44768262   0.48198427
1462.00   0.44304554   0.48296200
1463.00   0.43840554   0.48394103
1464.00   0.43376260   0.48492136
1465.00   0.42911674   0.48590298
1466.00   0.42446795   0.48688591
1467.00   0.41981623   0.48787013
1468.00   0.41516158   0.48885565
1469.00   0.41050401   0.48984247
1470.00   0.40584351   0.49083059
1471.00   0.40118008   0.49182001
1472.00   0.39651373   0.49281074
1473.00   0.39184445   0.49380277
1474.00   0.38717225   0.49479610
1475.00   0.38249713   0.49579074
1476.00   0.37781908   0.49678669
1477.00   0.37313811   0.49778394
1478.00   0.36845421   0.49878250
1479.00   0.36376740   0.49978237
1480.00   0.35907766   0.50078355
1481.00   0.35438500   0.50178603
1482.00   0.34968942   0.50278983
1483.00   0.34499092   0.50379494
1484.00   0.34028950   0.50480136
1485.00   0.33558517   0.50580909
1486.00   0.33087791   0.50681814
1487.00   0.32616773   0.50782850
1488.00   0.32145464   0.50884017
1489.00   0.31673863   0.50985316
1490.00   0.31201971   0.51086747
1491.00   0.30729786   0.51188310
1492.00   0.30257310   0.51290004
1493.00   0.29784543   0.51391830
1494.00   0.29311484   0.51493789
1495.00   0.28838134   0.51595879
1496.00   0.28364492   0.51698101
1497.00   0.27890559   0.51800456
1498.00   0.27416335   0.51902943
1499.00   0.26941819   0.52005562
1500.00   0.26467012   0.52108314
1501.00   0.25991915   0.52211198
1502.00   0.25516526   0.52314214
1503.00   0.25040846   0.52417364
1504.00   0.24564875   0.52520646
1505.00   0.24088613   0.52624061
1506.00   0.23612060   0.52727609
1507.00   0.23135216   0.52831289
1508.00   0.22658082   0.52935103
1509.00   0.22180657   0.53039050
1510.00   0.21702941   0.53143130
1511.00   0.21224934   0.53247344
1512.00   0.20746637   0.53351690
1513.00   0.20268049   0.53456171
1514.00   0.19789171   0.53560784
1515.00   0.19310003   0.53665531
1516.00   0.18830544   0.53770412
1517.00   0.18350794   0.53875427
1518.00   0.17870755   0.53980575
1519.00   0.17390425   0.54085857
1520.00   0.16909805   0.54191274
1521.00   0.16428894   0.54296824
1522.00   0.15947694   0.54402508
1523.00   0.15466204   0.54508327
1524.00   0.14984423   0.54614279
1525.00   0.14502353   0.54720367
1526.00   0.14019992   0.54826588
1527.00   0.13537342   0.54932944
1528.00   0.13054402   0.55039435
1529.00   0.12571173   0.55146060
1530.00   0.12087653   0.55252820
1531.00   0.11603844   0.55359714
1532.00   0.11119745   0.55466744
1533.00   0.10635357   0.55573908
1534.00   0.10150679   0.55681208
1535.00   0.09665712   0.55788642
1536.00   0.09180456   0.55896212
1537.00   0.08694910   0.56003917
1538.00   0.08209074   0.56111757
1539.00   0.07722950   0.56219733
1540.00   0.07236536   0.56327844
1541.00   0.06749833   0.56436091
1542.00   0.06262841   0.56544473
1543.00   0.05775560   0.56652991
1544.00   0.05287990   0.56761645
1545.00   0.04800131   0.56870435
1546.00   0.04311983   0.56979360
1547.00   0.03823546   0.57088422
1548.00   0.03334821   0.57197619
1549.00   0.02845806   0.57306953
1550.00   0.02356503   0.57416423
1551.00   0.01866912   0.57526030
1552.00   0.01377031   0.57635772
1553.00   0.00886862   0.57745651
1554.00   0.00396405   0.57855667
1555.00  -0.00094341   0.57965819
1556.00  -0.00585375   0.58076108
1557.00  -0.01076698   0.58186534
1558.00  -0.01568309   0.58297096
1559.00  -0.02060208   0.58407796
1560.00  -0.02552395   0.58518632
1561.00  -0.03044871   0.58629605
1562.00  -0.03537634   0.58740716
1563.00  -0.04030686   0.58851963
1564.00  -0.04524026   0.58963348
1565.00  -0.05017653   0.59074871
1566.00  -0.05511569   0.59186531
1567.00  -0.06005772   0.59298328
1568.00  -0.06500264   0.59410263
1569.00  -0.06995043   0.59522335
1570.00  -0.07490109   0.59634545
1571.00  -0.07985463   0.59746893
1572.00  -0.08481105   0.59859379
1573.00  -0.08977035   0.59972003
1574.00  -0.09473252   0.60084765
1575.00  -0.09969756   0.60197665
1576.00  -0.10466548   0.60310703
1577.00  -0.10963627   0.60423879
1578.00  -0.11460993   0.60537194
1579.00  -0.11958647   0.60650647
1580.00  -0.12456588   0.60764239
1581.00  -0.12954816   0.60877969
1582.00  -0.13453331   0.60991838
1583.00  -0.13952133   0.61105845
1584.00  -0.14451222   0.61219991
1585.00  -0.14950598   0.61334276
1586.00  -0.15450261   0.61448700
1587.00  -0.15950211   0.61563263
1588.00  -0.16450447   0.61677965
1589.00  -0.16950970   0.61792806
1590.00  -0.17451780   0.61907787
1591.00  -0.17952877   0.62022906
1592.00  -0.18454260   0.62138165
1593.00  -0.18955930   0.62253564
1594.00  -0.19457886   0.62369102
1595.00  -0.19960128   0.62484779
1596.00  -0.20462657   0.62600597
1597.00  -0.20965472   0.62716554
1598.00  -0.21468574   0.62832650
1599.00  -0.21971962   0.62948887
1600.00  -0.22475635   0.63065264
1601.00  -0.22979595   0.63181780
1602.00  -0.23483842   0.63298437
1603.00  -0.23988374   0.63415234
1604.00  -0.24493192   0.63532171
1605.00  -0.24998296   0.63649249
1606.00  -0.25503685   0.63766467
1607.00  -0.26009361   0.63883825
1608.00  -0.26515322   0.64001324
1609.00  -0.27021569   0.64118964
1610.00  -0.27528102   0.64236744
1611.00  -0.28034920   0.64354665
1612.00  -0.28542024   0.64472727
1613.00  -0.29049414   0.64590930
1614.00  -0.29557088   0.64709274
1615.00  -0.30065049   0.64827759
1616.00  -0.30573294   0.64946385
1617.00  -0.31081825   0.65065152
1618.00  -0.31590641   0.65184061
1619.00  -0.32099742   0.65303111
1620.00  -0.32609128   0.65422302
1621.00  -0.33118800   0.65541635
1622.00  -0.33628756   0.65661109
1623.00  -0.34138998   0.65780726
1624.00  -0.34649524   0.65900483
1625.00  -0.35160335   0.66020383
1626.00  -0.35671431   0.66140425
1627.00  -0.36182812   0.66260608
1628.00  -0.36694478   0.66380934
1629.00  -0.37206428   0.66501401
1630.00  -0.37718663   0.66622011
1631.00  -0.38231182   0.66742763
1632.00  -0.38743986   0.66863658
1633.00  -0.39257074   0.66984694
1634.00  -0.39770447   0.67105874
1635.00  -0.40284104   0.67227195
1636.00  -0.40798046   0.67348660
1637.00  -0.41312271   0.67470267
1638.00  -0.41826781   0.67592017
1639.00  -0.42341575   0.67713909
1640.00  -0.42856653   0.67835945
1641.00  -0.43372015   0.67958123
1642.00  -0.43887661   0.68080445
1643.00  -0.44403591   0.68202910
1644.00  -0.44919805   0.68325518
1645.00  -0.45436303   0.68448269
1646.00  -0.45953084   0.68571164
1647.00  -0.46470149   0.68694202
1648.00  -0.46987498   0.68817383
1649.00  -0.47505131   0.68940708
1650.00  -0.48023047   0.69064177
1651.00  -0.48541246   0.69187789
1652.00  -0.49059729   0.69311545
1653.00  -0.49578496   0.69435445
1654.00  -0.50097545   0.69559489
1655.00  -0.50616878   0.69683677
1656.00  -0.51136495   0.69808009
1657.00  -0.51656394   0.69932486
1658.00  -0.52176577   0.70057106
1659.00  -0.52697043   0.70181871
1660.00  -0.53217791   0.70306780
1661.00  -0.53738823   0.70431833
1662.00  -0.54260138   0.70557031
1663.00  -0.54781735   0.70682374
1664.00  -0.55303616   0.70807861
1665.00  -0.55825779   0.70933493
1666.00  -0.56348225   0.71059270
1667.00  -0.56870953   0.71185192
1668.00  -0.57393964   0.71311258
1669.00  -0.57917258   0.71437470
1670.00  -0.58440834   0.71563827
1671.00  -0.58964693   0.71690329
1672.00  -0.59488834   0.71816976
1673.00  -0.60013257   0.71943768
1674.00  -0.60537963   0.72070706
1675.00  -0.61062951   0.72197790
1676.00  -0.61588221   0.72325018
1677.00  -0.62113773   0.72452393
1678.00  -0.62639607   0.72579913
1679.00  -0.63165724   0.72707579
1680.00  -0.63692122   0.72835391
1681.00  -0.64218802   0.72963348
1682.00  -0.64745764   0.73091452
1683.00  -0.65273008   0.73219701
1684.00  -0.65800534   0.73348097
1685.00  -0.66328341   0.73476639
1686.00  -0.66856430   0.73605327
1687.00  -0.67384800   0.73734161
1688.00  -0.67913453   0.73863142
1689.00  -0.68442386   0.73992269
1690.00  -0.68971601   0.74121543
1691.00  -0.69501098   0.74250964
1692.00  -0.70030875   0.74380531
1693.00  -0.70560935   0.74510245
1694.00  -0.71091275   0.74640105
1695.00  -0.71621896   0.74770113
1696.00  -0.72152799   0.74900268
1697.00  -0.72683982   0.75030569
1698.00  -0.73215447   0.75161018
1699.00  -0.73747192   0.75291614
1700.00  -0.74279219   0.75422357
1701.00  -0.74811526   0.75553248
1702.00  -0.75344114   0.75684285
1703.00  -0.75876983   0.75815471
1704.00  -0.76410133   0.75946804
1705.00  -0.76943563   0.76078284
1706.00  -0.77477274   0.76209913
1707.00  -0.78011265   0.76341689
1708.00  -0.78545536   0.76473612
1709.00  -0.79080089   0.76605684
1710.00  -0.79614921   0.76737904
1711.00  -0.80150034   0.76870272
1712.00  -0.80685427   0.77002787
1713.00  -0.81221100   0.77135451
1714.00  -0.81757053   0.77268264
1715.00  -0.82293287   0.77401224
1716.00  -0.82829800   0.77534333
1717.00  -0.83366594   0.77667591
1718.00  -0.83903667   0.77800997
1719.00  -0.84441020   0.77934552
1720.00  -0.84978654   0.78068255
1721.00  -0.85516566   0.78202107
1722.00  -0.86054759   0.78336108
1723.00  -0.86593231   0.78470258
1724.00  -0.87131983   0.78604557
1725.00  -0.87671014   0.78739005
1726.00  -0.88210325   0.78873602
1727.00  -0.88749915   0.79008348
1728.00  -0.89289785   0.79143244
1729.00  -0.89829934   0.79278288
1730.00  -0.90370362   0.79413483
1731.00  -0.90911070   0.79548826
1732.00  -0.91452056   0.79684319
1733.00  -0.91993322   0.79819962
1734.00  -0.92534867   0.79955755
1735.00  -0.93076691   0.80091697
1736.00  -0.93618793   0.80227789
1737.00  -0.94161175   0.80364031
1738.00  -0.94703835   0.80500423
1739.00  -0.95246775   0.80636965
1740.00  -0.95789993   0.80773657
1741.00  -0.96333489   0.80910499
1742.00  -0.96877264   0.81047492
1743.00  -0.97421318   0.81184635
1744.00  -0.97965651   0.81321928
1745.00  -0.98510261   0.81459372
1746.00  -0.99055150   0.81596966
1747.00  -0.99600318   0.81734711
1748.00  -1.00145764   0.81872606
1749.00  -1.00691488   0.82010653
1750.00  -1.01237490   0.82148850
1751.00  -1.01783770   0.82287198
1752.00  -1.02330329   0.82425697
1753.00  -1.02877165   0.82564346
1754.00  -1.03424279   0.82703148
1755.00  -1.03971672   0.82842100
1756.00  -1.04519342   0.82981203
1757.00  -1.05067289   0.83120458
1758.00  -1.05615515   0.83259864
1759.00  -1.06164018   0.83399422
1760.00  -1.06712799   0.83539131
1761.00  -1.07261858   0.83678992
1762.00  -1.07811194   0.83819004
1763.00  -1.08360807   0.83959168
1764.00  -1.08910698   0.84099484
1765.00  -1.09460866   0.84239952
1766.00  -1.10011312   0.84380572
1767.00  -1.10562034   0.84521343
1768.00  -1.11113034   0.84662267
1769.00  -1.11664311   0.84803343
1770.00  -1.12215866   0.84944571
1771.00  -1.12767697   0.85085952
1772.00  -1.13319805   0.85227485
1773.00  -1.13872190   0.85369170
1774.00  -1.14424852   0.85511008
1775.00  -1.14977790   0.85652998
1776.00  -1.15531006   0.85795141
1777.00  -1.16084498   0.85937437
1778.00  -1.16638266   0.86079885
1779.00  -1.17192312   0.86222487
1780.00  -1.17746633   0.86365241
1781.00  -1.18301232   0.86508148
1782.00  -1.18856106   0.86651208
1783.00  -1.19411257   0.86794422
1784.00  -1.19966684   0.86937789
1785.00  -1.20522388   0.87081308
1786.00  -1.21078368   0.87224982
1787.00  -1.21634623   0.87368808
1788.00  -1.22191155   0.87512789
1789.00  -1.22747963   0.87656922
1790.00  -1.23305047   0.87801210
1791.00  -1.23862407   0.87945651
1792.00  -1.24420042   0.88090245
1793.00  -1.24977954   0.88234994
1794.00  -1.25536141   0.88379897
1795.00  -1.26094604   0.88524953
1796.00  -1.26653342   0.88670163
1797.00  -1.27212356   0.88815528
1798.00  -1.27771645   0.88961047
1799.00  -1.28331210   0.89106720
1800.00  -1.28891051   0.89252547
1801.00  -1.29451166   0.89398529
1802.00  -1.30011557   0.89544665
1803.00  -1.30572223   0.89690956
1804.00  -1.31133165   0.89837401
1805.00  -1.31694381   0.89984001
1806.00  -1.32255873   0.90130756
1807.00  -1.32817639   0.90277665
1808.00  -1.33379681   0.90424729
1809.00  -1.33941997   0.90571949
1810.00  -1.34504588   0.90719323
1811.00  -1.35067454   0.90866852
1812.00  -1.35630595   0.91014537
1813.00  -1.36194010   0.91162376
1814.00  -1.36757700   0.91310371
1815.00  -1.37321665   0.91458522
1816.00  -1.37885904   0.91606828
1817.00  -1.38450417   0.91755289
1818.00  -1.39015205   0.91903906
1819.00  -1.39580267   0.92052678
1820.00  -1.40145604   0.92201606
1821.00  -1.40711214   0.92350690
1822.00  -1.41277099   0.92499930
1823.00  -1.41843258   0.92649325
1824.00  -1.42409691   0.92798877
1825.00  -1.42976398   0.92948584
1826.00  -1.43543379   0.93098448
1827.00  -1.44110633   0.93248468
1828.00  -1.44678162   0.93398644
1829.00  -1.45245964   0.93548977
1830.00  -1.45814040   0.93699465
1831.00  -1.46382390   0.93850111
1832.00  -1.46951013   0.94000912
1833.00  -1.47519910   0.94151871
1834.00  -1.48089080   0.94302986
1835.00  -1.48658524   0.94454258
1836.00  -1.49228241   0.94605686
1837.00  -1.49798231   0.94757272
1838.00  -1.50368495   0.94909014
1839.00  -1.50939031   0.95060913
1840.00  -1.51509841   0.95212970
1841.00  -1.52080924   0.95365183
1842.00  -1.52652280   0.95517554
1843.00  -1.53223909   0.95670082
1844.00  -1.53795811   0.95822767
1845.00  -1.54367986   0.95975610
1846.00  -1.54940433   0.96128610
1847.00  -1.55513153   0.96281768
1848.00  -1.56086146   0.96435083
1849.00  -1.56659412   0.96588556
1850.00  -1.57232950   0.96742187
1851.00  -1.57806760   0.96895976
1852.00  -1.58380843   0.97049922
1853.00  -1.58955199   0.97204027
1854.00  -1.59529826   0.97358289
1855.00  -1.60104726   0.97512710
1856.00  -1.60679899   0.97667288
1857.00  -1.61255343   0.97822025
1858.00  -1.61831060   0.97976920
1859.00  -1.62407048   0.98131974
1860.00  -1.62983309   0.98287186
1861.00  -1.63559841   0.98442556
1862.00  -1.64136645   0.98598085
1863.00  -1.64713721   0.98753773
1864.00  -1.65291069   0.98909619
1865.00  -1.65868689   0.99065625
1866.00  -1.66446580   0.99221788
1867.00  -1.67024743   0.99378111
1868.00  -1.67603177   0.99534593
1869.00  -1.68181883   0.99691234
1870.00  -1.68760860   0.99848034
1871.00  -1.69340109   1.00004993
1872.00  -1.69919629   1.00162111
1873.00  -1.70499420   1.00319389
1874.00  -1.71079482   1.00476826
1875.00  -1.71659816   1.00634423
1876.00  -1.72240420   1.00792179
1877.00  -1.72821296   1.00950094
1878.00  -1.73402442   1.01108169
1879.00  -1.73983860   1.01266404
1880.00  -1.74565548   1.01424799
1881.00  -1.75147507   1.01583353
1882.00  -1.75729736   1.01742068
1883.00  -1.76312237   1.01900942
1884.00  -1.76895008   1.02059977
1885.00  -1.77478049   1.02219171
1886.00  -1.78061361   1.02378526
1887.00  -1.78644944   1.02538041
1888.00  -1.79228796   1.02697716
1889.00  -1.79812919   1.02857552
1890.00  -1.80397313   1.03017548
1891.00  -1.80981976   1.03177705
1892.00  -1.81566910   1.03338022
1893.00  -1.82152114   1.03498500
1894.00  -1.82737588   1.03659138
1895.00  -1.83323331   1.03819938
1896.00  -1.83909345   1.03980898
1897.00  -1.84495628   1.04142019
1898.00  -1.85082182   1.04303301
1899.00  -1.85669005   1.04464744
1900.00  -1.86256097   1.04626348
1901.00  -1.86843460   1.04788114
1902.00  -1.87431092   1.04950041
1903.00  -1.88018993   1.05112129
1904.00  -1.88607164   1.05274378
1905.00  -1.89195604   1.05436789
1906.00  -1.89784313   1.05599361
1907.00  -1.90373292   1.05762095
1908.00  -1.90962540   1.05924991
1909.00  -1.91552057   1.06088048
1910.00  -1.92141843   1.06251267
1911.00  -1.92731899   1.06414648
1912.00  -1.93322223   1.06578191
1913.00  -1.93912816   1.06741896
1914.00  -1.94503678   1.06905763
1915.00  -1.95094809   1.07069791
1916.00  -1.95686208   1.07233983
1917.00  -1.96277876   1.07398336
1918.00  -1.96869813   1.07562852
1919.00  -1.97462018   1.07727530
1920.00  -1.98054492   1.07892370
1921.00  -1.98647235   1.08057373
1922.00  -1.99240245   1.08222539
1923.00  -1.99833524   1.08387867
1924.00  -2.00427072   1.08553358
1925.00  -2.01020887   1.08719012
1926.00  -2.01614971   1.08884829
1927.00  -2.02209323   1.09050808
1928.00  -2.02803942   1.09216951
1929.00  -2.03398830   1.09383256
1930.00  -2.03993986   1.09549725
1931.00  -2.04589409   1.09716356
1932.00  -2.05185100   1.09883152
1933.00  -2.05781060   1.10050110
1934.00  -2.06377286   1.10217232
1935.00  -2.06973781   1.10384517
1936.00  -2.07570542   1.10551965
1937.00  -2.08167572   1.10719577
1938.00  -2.08764869   1.10887353
1939.00  -2.09362433   1.11055293
1940.00  -2.09960265   1.11223396
1941.00  -2.10558363   1.11391663
1942.00  -2.11156729   1.11560094
1943.00  -2.11755363   1.11728689
1944.00  -2.12354263   1.11897448
1945.00  -2.12953430   1.12066371
1946.00  -2.13552864   1.12235459
1947.00  -2.14152566   1.12404710
1948.00  -2.14752534   1.12574126
1949.00  -2.15352768   1.12743706
1950.00  -2.15953270   1.12913450
1951.00  -2.16554038   1.13083359
1952.00  -2.17155073   1.13253433
1953.00  -2.17756374   1.13423671
1954.00  -2.18357942   1.13594074
1955.00  -2.18959777   1.13764642
1956.00  -2.19561877   1.13935374
1957.00  -2.20164244   1.14106271
1958.00  -2.20766877   1.14277333
1959.00  -2.21369777   1.14448561
1960.00  -2.21972943   1.14619953
1961.00  -2.22576374   1.14791510
1962.00  -2.23180072   1.14963233
1963.00  -2.23784036   1.15135121
1964.00  -2.24388265   1.15307174
1965.00  -2.24992760   1.15479393
1966.00  -2.25597522   1.15651777
1967.00  -2.26202549   1.15824327
1968.00  -2.26807841   1.15997042
1969.00  -2.27413399   1.16169923
1970.00  -2.28019223   1.16342969
1971.00  -2.28625312   1.16516182
1972.00  -2.29231667   1.16689560
1973.00  -2.29838287   1.16863104
1974.00  -2.30445172   1.17036814
1975.00  -2.31052322   1.17210690
1976.00  -2.31659738   1.17384733
1977.00  -2.32267419   1.17558941
1978.00  -2.32875365   1.17733316
1979.00  -2.33483576   1.17907857
1980.00  -2.34092052   1.18082564
1981.00  -2.34700792   1.18257438
1982.00  -2.35309798   1.18432478
1983.00  -2.35919068   1.18607685
1984.00  -2.36528603   1.18783059
1985.00  -2.37138403   1.18958599
1986.00  -2.37748467   1.19134306
1987.00  -2.38358796   1.19310180
1988.00  -2.38969389   1.19486220
1989.00  -2.39580247   1.19662428
1990.00  -2.40191368   1.19838803
1991.00  -2.40802755   1.20015344
1992.00  -2.41414405   1.20192053
1993.00  -2.42026320   1.20368929
1994.00  -2.42638499   1.20545972
1995.00  -2.43250941   1.20723183
1996.00  -2.43863648   1.20900561
1997.00  -2.44476619   1.21078107
1998.00  -2.45089853   1.21255820
1999.00  -2.45703352   1.21433700
2000.00  -2.46317114   1.21611749
