wavelength(nm)         real         imag
200.00   3.84539433   0.00104361
201.00   3.84484711   0.00105934
202.00   3.84429717   0.00107523
203.00   3.84374450   0.00109127
204.00   3.84318910   0.00110747
205.00   3.84263098   0.00112384
206.00   3.84207014   0.00114036
207.00   3.84150657   0.00115704
208.00   3.84094027   0.00117389
209.00   3.84037125   0.00119090
210.00   3.83979951   0.00120807
211.00   3.83922504   0.00122540
212.00   3.83864784   0.00124290
213.00   3.83806792   0.00126057
214.00   3.83748528   0.00127840
215.00   3.83689991   0.00129640
216.00   3.83631182   0.00131457
217.00   3.83572100   0.00133291
218.00   3.83512746   0.00135142
219.00   3.83453120   0.00137009
220.00   3.83393221   0.00138894
221.00   3.83333050   0.00140796
222.00   3.83272606   0.00142716
223.00   3.83211890   0.00144652
224.00   3.83150901   0.00146607
225.00   3.83089641   0.00148578
226.00   3.83028107   0.00150567
227.00   3.82966302   0.00152574
228.00   3.82904224   0.00154599
229.00   3.82841874   0.00156641
230.00   3.82779251   0.00158702
231.00   3.82716356   0.00160780
232.00   3.82653189   0.00162877
233.00   3.82589749   0.00164991
234.00   3.82526037   0.00167124
235.00   3.82462053   0.00169275
236.00   3.82397796   0.00171444
237.00   3.82333267   0.00173632
238.00   3.82268466   0.00175839
239.00   3.82203393   0.00178064
240.00   3.82138047   0.00180307
241.00   3.82072429   0.00182570
242.00   3.82006539   0.00184851
243.00   3.81940376   0.00187151
244.00   3.81873942   0.00189471
245.00   3.81807235   0.00191809
246.00   3.81740256   0.00194166
247.00   3.81673004   0.00196543
248.00   3.81605480   0.00198939
249.00   3.81537685   0.00201354
250.00   3.81469617   0.00203789
251.00   3.81401276   0.00206243
252.00   3.81332664   0.00208717
253.00   3.81263779   0.00211211
254.00   3.81194623   0.00213724
255.00   3.81125194   0.00216257
256.00   3.81055493   0.00218811
257.00   3.80985519   0.00221384
258.00   3.80915274   0.00223977
259.00   3.80844756   0.00226590
260.00   3.80773967   0.00229224
261.00   3.80702905   0.00231878
262.00   3.80631571   0.00234552
263.00   3.80559965   0.00237247
264.00   3.80488087   0.00239963
265.00   3.80415937   0.00242699
266.00   3.80343515   0.00245455
267.00   3.80270820   0.00248233
268.00   3.80197854   0.00251031
269.00   3.80124616   0.00253851
270.00   3.80051105   0.00256691
271.00   3.79977323   0.00259552
272.00   3.79903268   0.00262435
273.00   3.79828941   0.00265339
274.00   3.79754343   0.00268264
275.00   3.79679472   0.00271211
276.00   3.79604330   0.00274179
277.00   3.79528915   0.00277168
278.00   3.79453229   0.00280179
279.00   3.79377270   0.00283212
280.00   3.79301040   0.00286267
281.00   3.79224537   0.00289344
282.00   3.79147763   0.00292442
283.00   3.79070716   0.00295563
284.00   3.78993398   0.00298706
285.00   3.78915808   0.00301871
286.00   3.78837946   0.00305058
287.00   3.78759812   0.00308267
288.00   3.78681406   0.00311499
289.00   3.78602728   0.00314754
290.00   3.78523778   0.00318031
291.00   3.78444557   0.00321330
292.00   3.78365063   0.00324653
293.00   3.78285298   0.00327998
294.00   3.78205261   0.00331366
295.00   3.78124952   0.00334757
296.00   3.78044371   0.00338171
297.00   3.77963519   0.00341608
298.00   3.77882394   0.00345068
299.00   3.77800998   0.00348552
300.00   3.77719330   0.00352059
301.00   3.77637390   0.00355589
302.00   3.77555179   0.00359143
303.00   3.77472695   0.00362721
304.00   3.77389940   0.00366322
305.00   3.77306913   0.00369947
306.00   3.77223615   0.00373595
307.00   3.77140045   0.00377268
308.00   3.77056202   0.00380964
309.00   3.76972089   0.00384685
310.00   3.76887703   0.00388430
311.00   3.76803046   0.00392199
312.00   3.76718117   0.00395992
313.00   3.76632917   0.00399809
314.00   3.76547445   0.00403651
315.00   3.76461701   0.00407518
316.00   3.76375685   0.00411409
317.00   3.76289398   0.00415325
318.00   3.76202840   0.00419265
319.00   3.76116009   0.00423230
320.00   3.76028907   0.00427221
321.00   3.75941534   0.00431236
322.00   3.75853889   0.00435276
323.00   3.75765972   0.00439342
324.00   3.75677784   0.00443432
325.00   3.75589324   0.00447548
326.00   3.75500592   0.00451689
327.00   3.75411589   0.00455856
328.00   3.75322315   0.00460048
329.00   3.75232769   0.00464266
330.00   3.75142951   0.00468510
331.00   3.75052862   0.00472779
332.00   3.74962502   0.00477074
333.00   3.74871870   0.00481395
334.00   3.74780966   0.00485742
335.00   3.74689791   0.00490115
336.00   3.74598345   0.00494514
337.00   3.74506627   0.00498939
338.00   3.74414638   0.00503391
339.00   3.74322377   0.00507869
340.00   3.74229845   0.00512374
341.00   3.74137042   0.00516905
342.00   3.74043967   0.00521462
343.00   3.73950621   0.00526047
344.00   3.73857003   0.00530658
345.00   3.73763114   0.00535296
346.00   3.73668954   0.00539961
347.00   3.73574522   0.00544652
348.00   3.73479819   0.00549371
349.00   3.73384844   0.00554117
350.00   3.73289599   0.00558891
351.00   3.73194082   0.00563691
352.00   3.73098294   0.00568519
353.00   3.73002234   0.00573375
354.00   3.72905903   0.00578258
355.00   3.72809301   0.00583168
356.00   3.72712428   0.00588106
357.00   3.72615283   0.00593072
358.00   3.72517868   0.00598066
359.00   3.72420181   0.00603088
360.00   3.72322222   0.00608138
361.00   3.72223993   0.00613216
362.00   3.72125493   0.00618322
363.00   3.72026721   0.00623456
364.00   3.71927678   0.00628619
365.00   3.71828364   0.00633810
366.00   3.71728779   0.00639029
367.00   3.71628922   0.00644277
368.00   3.71528795   0.00649554
369.00   3.71428396   0.00654859
370.00   3.71327727   0.00660193
371.00   3.71226786   0.00665556
372.00   3.71125574   0.00670948
373.00   3.71024091   0.00676368
374.00   3.70922337   0.00681818
375.00   3.70820312   0.00687297
376.00   3.70718016   0.00692806
377.00   3.70615449   0.00698343
378.00   3.70512611   0.00703910
379.00   3.70409502   0.00709507
380.00   3.70306122   0.00715133
381.00   3.70202471   0.00720789
382.00   3.70098549   0.00726474
383.00   3.69994357   0.00732189
384.00   3.69889893   0.00737934
385.00   3.69785158   0.00743709
386.00   3.69680152   0.00749514
387.00   3.69574876   0.00755349
388.00   3.69469328   0.00761214
389.00   3.69363510   0.00767110
390.00   3.69257421   0.00773035
391.00   3.69151060   0.00778991
392.00   3.69044430   0.00784978
393.00   3.68937528   0.00790995
394.00   3.68830355   0.00797043
395.00   3.68722912   0.00803121
396.00   3.68615198   0.00809231
397.00   3.68507213   0.00815371
398.00   3.68398957   0.00821542
399.00   3.68290430   0.00827744
400.00   3.68181633   0.00833977
401.00   3.68072565   0.00840242
402.00   3.67963226   0.00846537
403.00   3.67853617   0.00852864
404.00   3.67743736   0.00859222
405.00   3.67633585   0.00865612
406.00   3.67523164   0.00872033
407.00   3.67412472   0.00878486
408.00   3.67301509   0.00884971
409.00   3.67190275   0.00891488
410.00   3.67078771   0.00898036
411.00   3.66966996   0.00904616
412.00   3.66854951   0.00911228
413.00   3.66742635   0.00917873
414.00   3.66630048   0.00924549
415.00   3.66517191   0.00931258
416.00   3.66404063   0.00937999
417.00   3.66290665   0.00944773
418.00   3.66176996   0.00951579
419.00   3.66063057   0.00958417
420.00   3.65948847   0.00965288
421.00   3.65834366   0.00972192
422.00   3.65719616   0.00979129
423.00   3.65604594   0.00986099
424.00   3.65489302   0.00993101
425.00   3.65373740   0.01000137
426.00   3.65257908   0.01007205
427.00   3.65141805   0.01014307
428.00   3.65025431   0.01021442
429.00   3.64908787   0.01028610
430.00   3.64791873   0.01035812
431.00   3.64674688   0.01043047
432.00   3.64557233   0.01050316
433.00   3.64439508   0.01057619
434.00   3.64321512   0.01064955
435.00   3.64203246   0.01072325
436.00   3.64084710   0.01079728
437.00   3.63965903   0.01087166
438.00   3.63846826   0.01094638
439.00   3.63727479   0.01102144
440.00   3.63607862   0.01109684
441.00   3.63487974   0.01117258
442.00   3.63367816   0.01124867
443.00   3.63247388   0.01132509
444.00   3.63126690   0.01140187
445.00   3.63005721   0.01147899
446.00   3.62884482   0.01155646
447.00   3.62762973   0.01163427
448.00   3.62641194   0.01171243
449.00   3.62519145   0.01179094
450.00   3.62396826   0.01186980
451.00   3.62274237   0.01194901
452.00   3.62151377   0.01202857
453.00   3.62028248   0.01210849
454.00   3.61904848   0.01218875
455.00   3.61781178   0.01226937
456.00   3.61657238   0.01235034
457.00   3.61533029   0.01243167
458.00   3.61408549   0.01251335
459.00   3.61283799   0.01259539
460.00   3.61158779   0.01267779
461.00   3.61033489   0.01276054
462.00   3.60907930   0.01284365
463.00   3.60782100   0.01292712
464.00   3.60656000   0.01301096
465.00   3.60529631   0.01309515
466.00   3.60402991   0.01317970
467.00   3.60276082   0.01326462
468.00   3.60148903   0.01334990
469.00   3.60021454   0.01343555
470.00   3.59893735   0.01352156
471.00   3.59765746   0.01360793
472.00   3.59637487   0.01369467
473.00   3.59508959   0.01378178
474.00   3.59380161   0.01386926
475.00   3.59251093   0.01395710
476.00   3.59121755   0.01404532
477.00   3.58992148   0.01413390
478.00   3.58862270   0.01422285
479.00   3.58732123   0.01431218
480.00   3.58601707   0.01440188
481.00   3.58471020   0.01449195
482.00   3.58340064   0.01458240
483.00   3.58208838   0.01467322
484.00   3.58077343   0.01476442
485.00   3.57945578   0.01485599
486.00   3.57813543   0.01494794
487.00   3.57681239   0.01504027
488.00   3.57548665   0.01513298
489.00   3.57415822   0.01522606
490.00   3.57282709   0.01531953
491.00   3.57149326   0.01541337
492.00   3.57015674   0.01550760
493.00   3.56881752   0.01560221
494.00   3.56747561   0.01569721
495.00   3.56613100   0.01579259
496.00   3.56478370   0.01588835
497.00   3.56343370   0.01598450
498.00   3.56208101   0.01608103
499.00   3.56072563   0.01617795
500.00   3.55936755   0.01627526
501.00   3.55800678   0.01637296
502.00   3.55664331   0.01647105
503.00   3.55527715   0.01656952
504.00   3.55390829   0.01666839
505.00   3.55253674   0.01676765
506.00   3.55116250   0.01686730
507.00   3.54978557   0.01696735
508.00   3.54840594   0.01706779
509.00   3.54702362   0.01716862
510.00   3.54563861   0.01726985
511.00   3.54425090   0.01737147
512.00   3.54286050   0.01747349
513.00   3.54146741   0.01757591
514.00   3.54007163   0.01767873
515.00   3.53867315   0.01778195
516.00   3.53727199   0.01788557
517.00   3.53586813   0.01798959
518.00   3.53446158   0.01809401
519.00   3.53305234   0.01819883
520.00   3.53164040   0.01830405
521.00   3.53022578   0.01840968
522.00   3.52880847   0.01851572
523.00   3.52738846   0.01862215
524.00   3.52596577   0.01872900
525.00   3.52454038   0.01883625
526.00   3.52311230   0.01894391
527.00   3.52168154   0.01905198
528.00   3.52024808   0.01916046
529.00   3.51881193   0.01926934
530.00   3.51737310   0.01937864
531.00   3.51593157   0.01948835
532.00   3.51448736   0.01959847
533.00   3.51304045   0.01970901
534.00   3.51159086   0.01981995
535.00   3.51013858   0.01993132
536.00   3.50868361   0.02004309
537.00   3.50722595   0.02015529
538.00   3.50576560   0.02026790
539.00   3.50430256   0.02038093
540.00   3.50283684   0.02049437
541.00   3.50136843   0.02060824
542.00   3.49989733   0.02072253
543.00   3.49842354   0.02083723
544.00   3.49694706   0.02095236
545.00   3.49546790   0.02106791
546.00   3.49398605   0.02118388
547.00   3.49250151   0.02130028
548.00   3.49101429   0.02141710
549.00   3.48952438   0.02153434
550.00   3.48803179   0.02165202
551.00   3.48653650   0.02177011
552.00   3.48503853   0.02188864
553.00   3.48353788   0.02200759
554.00   3.48203454   0.02212698
555.00   3.48052851   0.02224679
556.00   3.47901980   0.02236703
557.00   3.47750840   0.02248771
558.00   3.47599432   0.02260882
559.00   3.47447755   0.02273035
560.00   3.47295810   0.02285233
561.00   3.47143596   0.02297474
562.00   3.46991114   0.02309758
563.00   3.46838364   0.02322086
564.00   3.46685345   0.02334457
565.00   3.46532057   0.02346872
566.00   3.46378501   0.02359331
567.00   3.46224677   0.02371834
568.00   3.46070585   0.02384381
569.00   3.45916224   0.02396972
570.00   3.45761595   0.02409607
571.00   3.45606697   0.02422286
572.00   3.45451532   0.02435010
573.00   3.45296098   0.02447778
574.00   3.45140395   0.02460590
575.00   3.44984425   0.02473447
576.00   3.44828186   0.02486348
577.00   3.44671679   0.02499294
578.00   3.44514904   0.02512285
579.00   3.44357861   0.02525320
580.00   3.44200549   0.02538401
581.00   3.44042970   0.02551526
582.00   3.43885122   0.02564697
583.00   3.43727006   0.02577912
584.00   3.43568623   0.02591173
585.00   3.43409971   0.02604479
586.00   3.43251051   0.02617830
587.00   3.43091863   0.02631226
588.00   3.42932407   0.02644669
589.00   3.42772683   0.02658156
590.00   3.42612691   0.02671690
591.00   3.42452431   0.02685269
592.00   3.42291903   0.02698893
593.00   3.42131107   0.02712564
594.00   3.41970043   0.02726281
595.00   3.41808712   0.02740043
596.00   3.41647112   0.02753852
597.00   3.41485245   0.02767707
598.00   3.41323110   0.02781608
599.00   3.41160707   0.02795556
600.00   3.40998036   0.02809549
601.00   3.40835097   0.02823590
602.00   3.40671891   0.02837677
603.00   3.40508417   0.02851810
604.00   3.40344675   0.02865990
605.00   3.40180666   0.02880217
606.00   3.40016388   0.02894491
607.00   3.39851844   0.02908812
608.00   3.39687031   0.02923179
609.00   3.39521951   0.02937594
610.00   3.39356603   0.02952056
611.00   3.39190987   0.02966565
612.00   3.39025104   0.02981122
613.00   3.38858954   0.02995726
614.00   3.38692536   0.03010377
615.00   3.38525850   0.03025076
616.00   3.38358897   0.03039822
617.00   3.38191676   0.03054616
618.00   3.38024188   0.03069458
619.00   3.37856432   0.03084348
620.00   3.37688409   0.03099285
621.00   3.37520119   0.03114271
622.00   3.37351561   0.03129304
623.00   3.37182735   0.03144386
624.00   3.37013643   0.03159516
625.00   3.36844283   0.03174694
626.00   3.36674655   0.03189921
627.00   3.36504761   0.03205196
628.00   3.36334599   0.03220520
629.00   3.36164169   0.03235892
630.00   3.35993473   0.03251313
631.00   3.35822509   0.03266782
632.00   3.35651278   0.03282301
633.00   3.35479780   0.03297868
634.00   3.35308014   0.03313484
635.00   3.35135982   0.03329149
636.00   3.34963682   0.03344864
637.00   3.34791115   0.03360627
638.00   3.34618281   0.03376440
639.00   3.34445180   0.03392302
640.00   3.34271812   0.03408214
641.00   3.34098177   0.03424175
642.00   3.33924275   0.03440185
643.00   3.33750106   0.03456246
644.00   3.33575669   0.03472356
645.00   3.33400966   0.03488516
646.00   3.33225996   0.03504725
647.00   3.33050759   0.03520985
648.00   3.32875255   0.03537294
649.00   3.32699484   0.03553654
650.00   3.32523446   0.03570064
651.00   3.32347142   0.03586524
652.00   3.32170570   0.03603035
653.00   3.31993732   0.03619596
654.00   3.31816626   0.03636207
655.00   3.31639255   0.03652869
656.00   3.31461616   0.03669581
657.00   3.31283710   0.03686344
658.00   3.31105538   0.03703158
659.00   3.30927099   0.03720023
660.00   3.30748394   0.03736939
661.00   3.30569421   0.03753906
662.00   3.30390182   0.03770923
663.00   3.30210677   0.03787992
664.00   3.30030905   0.03805113
665.00   3.29850866   0.03822284
666.00   3.29670560   0.03839507
667.00   3.29489988   0.03856781
668.00   3.29309150   0.03874107
669.00   3.29128045   0.03891484
670.00   3.28946674   0.03908914
671.00   3.28765036   0.03926394
672.00   3.28583131   0.03943927
673.00   3.28400960   0.03961512
674.00   3.28218523   0.03979148
675.00   3.28035819   0.03996837
676.00   3.27852849   0.04014578
677.00   3.27669613   0.04032370
678.00   3.27486110   0.04050216
679.00   3.27302341   0.04068113
680.00   3.27118306   0.04086063
681.00   3.26934004   0.04104066
682.00   3.26749436   0.04122121
683.00   3.26564602   0.04140228
684.00   3.26379502   0.04158389
685.00   3.26194135   0.04176602
686.00   3.26008502   0.04194868
687.00   3.25822603   0.04213187
688.00   3.25636438   0.04231559
689.00   3.25450007   0.04249985
690.00   3.25263310   0.04268463
691.00   3.25076346   0.04286995
692.00   3.24889117   0.04305580
693.00   3.24701621   0.04324218
694.00   3.24513860   0.04342910
695.00   3.24325833   0.04361655
696.00   3.24137539   0.04380454
697.00   3.23948980   0.04399307
698.00   3.23760154   0.04418213
699.00   3.23571063   0.04437174
700.00   3.23381706   0.04456188
701.00   3.23192083   0.04475256
702.00   3.23002194   0.04494378
703.00   3.22812039   0.04513555
704.00   3.22621619   0.04532785
705.00   3.22430932   0.04552070
706.00   3.22239980   0.04571410
707.00   3.22048762   0.04590804
708.00   3.21857279   0.04610252
709.00   3.21665529   0.04629755
710.00   3.21473514   0.04649313
711.00   3.21281234   0.04668925
712.00   3.21088687   0.04688592
713.00   3.20895875   0.04708314
714.00   3.20702798   0.04728091
715.00   3.20509454   0.04747923
716.00   3.20315846   0.04767811
717.00   3.20121971   0.04787753
718.00   3.19927832   0.04807751
719.00   3.19733426   0.04827804
720.00   3.19538756   0.04847912
721.00   3.19343819   0.04868076
722.00   3.19148618   0.04888296
723.00   3.18953151   0.04908571
724.00   3.18757418   0.04928902
725.00   3.18561420   0.04949288
726.00   3.18365157   0.04969731
727.00   3.18168628   0.04990229
728.00   3.17971834   0.05010784
729.00   3.17774775   0.05031394
730.00   3.17577451   0.05052061
731.00   3.17379861   0.05072784
732.00   3.17182006   0.05093563
733.00   3.16983886   0.05114399
734.00   3.16785501   0.05135291
735.00   3.16586850   0.05156240
736.00   3.16387935   0.05177245
737.00   3.16188754   0.05198307
738.00   3.15989308   0.05219426
739.00   3.15789597   0.05240602
740.00   3.15589621   0.05261834
741.00   3.15389380   0.05283124
742.00   3.15188874   0.05304470
743.00   3.14988103   0.05325874
744.00   3.14787067   0.05347335
745.00   3.14585766   0.05368853
746.00   3.14384200   0.05390429
747.00   3.14182369   0.05412062
748.00   3.13980274   0.05433752
749.00   3.13777913   0.05455500
750.00   3.13575288   0.05477306
751.00   3.13372398   0.05499170
752.00   3.13169243   0.05521091
753.00   3.12965823   0.05543070
754.00   3.12762139   0.05565107
755.00   3.12558189   0.05587202
756.00   3.12353975   0.05609355
757.00   3.12149497   0.05631567
758.00   3.11944753   0.05653836
759.00   3.11739746   0.05676164
760.00   3.11534473   0.05698551
761.00   3.11328936   0.05720996
762.00   3.11123134   0.05743499
763.00   3.10917068   0.05766061
764.00   3.10710737   0.05788682
765.00   3.10504142   0.05811361
766.00   3.10297282   0.05834100
767.00   3.10090158   0.05856897
768.00   3.09882769   0.05879753
769.00   3.09675116   0.05902668
770.00   3.09467198   0.05925643
771.00   3.09259017   0.05948676
772.00   3.09050570   0.05971769
773.00   3.08841860   0.05994922
774.00   3.08632885   0.06018133
775.00   3.08423646   0.06041405
776.00   3.08214142   0.06064736
777.00   3.08004375   0.06088126
778.00   3.07794343   0.06111576
779.00   3.07584047   0.06135086
780.00   3.07373486   0.06158656
781.00   3.07162662   0.06182286
782.00   3.06951573   0.06205976
783.00   3.06740221   0.06229726
784.00   3.06528604   0.06253536
785.00   3.06316723   0.06277407
786.00   3.06104579   0.06301337
787.00   3.05892170   0.06325329
788.00   3.05679497   0.06349380
789.00   3.05466560   0.06373492
790.00   3.05253359   0.06397665
791.00   3.05039895   0.06421899
792.00   3.04826166   0.06446193
793.00   3.04612174   0.06470548
794.00   3.04397918   0.06494964
795.00   3.04183398   0.06519441
796.00   3.03968614   0.06543979
797.00   3.03753566   0.06568579
798.00   3.03538255   0.06593239
799.00   3.03322679   0.06617961
800.00   3.03106840   0.06642744
801.00   3.02890738   0.06667588
802.00   3.02674372   0.06692494
803.00   3.02457742   0.06717462
804.00   3.02240848   0.06742491
805.00   3.02023691   0.06767582
806.00   3.01806271   0.06792735
807.00   3.01588586   0.06817950
808.00   3.01370639   0.06843226
809.00   3.01152427   0.06868565
810.00   3.00933953   0.06893966
811.00   3.00715214   0.06919429
812.00   3.00496213   0.06944954
813.00   3.00276948   0.06970542
814.00   3.00057419   0.06996191
815.00   2.99837628   0.07021904
816.00   2.99617573   0.07047679
817.00   2.99397254   0.07073516
818.00   2.99176672   0.07099416
819.00   2.98955828   0.07125379
820.00   2.98734719   0.07151405
821.00   2.98513348   0.07177494
822.00   2.98291713   0.07203645
823.00   2.98069815   0.07229860
824.00   2.97847655   0.07256138
825.00   2.97625230   0.07282479
826.00   2.97402543   0.07308884
827.00   2.97179593   0.07335351
828.00   2.96956380   0.07361882
829.00   2.96732903   0.07388477
830.00   2.96509164   0.07415135
831.00   2.96285162   0.07441857
832.00   2.96060897   0.07468642
833.00   2.95836368   0.07495492
834.00   2.95611577   0.07522405
835.00   2.95386523   0.07549382
836.00   2.95161206   0.07576423
837.00   2.94935627   0.07603529
838.00   2.94709784   0.07630698
839.00   2.94483679   0.07657932
840.00   2.94257311   0.07685229
841.00   2.94030680   0.07712592
842.00   2.93803787   0.07740019
843.00   2.93576631   0.07767510
844.00   2.93349212   0.07795066
845.00   2.93121530   0.07822686
846.00   2.92893586   0.07850372
847.00   2.92665380   0.07878122
848.00   2.92436910   0.07905937
849.00   2.92208179   0.07933817
850.00   2.91979184   0.07961762
851.00   2.91749927   0.07989772
852.00   2.91520408   0.08017847
853.00   2.91290626   0.08045988
854.00   2.91060582   0.08074194
855.00   2.90830276   0.08102465
856.00   2.90599707   0.08130802
857.00   2.90368876   0.08159204
858.00   2.90137782   0.08187672
859.00   2.89906426   0.08216205
860.00   2.89674808   0.08244805
861.00   2.89442928   0.08273470
862.00   2.89210785   0.08302201
863.00   2.88978381   0.08330998
864.00   2.88745714   0.08359862
865.00   2.88512784   0.08388791
866.00   2.88279593   0.08417787
867.00   2.88046140   0.08446848
868.00   2.87812425   0.08475977
869.00   2.87578447   0.08505171
870.00   2.87344208   0.08534432
871.00   2.87109706   0.08563760
872.00   2.86874943   0.08593155
873.00   2.86639918   0.08622616
874.00   2.86404630   0.08652143
875.00   2.86169081   0.08681738
876.00   2.85933270   0.08711400
877.00   2.85697197   0.08741129
878.00   2.85460863   0.08770924
879.00   2.85224266   0.08800787
880.00   2.84987408   0.08830717
881.00   2.84750288   0.08860715
882.00   2.84512906   0.08890780
883.00   2.84275263   0.08920912
884.00   2.84037358   0.08951112
885.00   2.83799191   0.08981379
886.00   2.83560763   0.09011714
887.00   2.83322073   0.09042117
888.00   2.83083121   0.09072588
889.00   2.82843908   0.09103126
890.00   2.82604434   0.09133733
891.00   2.82364698   0.09164407
892.00   2.82124700   0.09195150
893.00   2.81884441   0.09225960
894.00   2.81643921   0.09256839
895.00   2.81403139   0.09287787
896.00   2.81162096   0.09318803
897.00   2.80920792   0.09349887
898.00   2.80679226   0.09381040
899.00   2.80437399   0.09412261
900.00   2.80195311   0.09443551
901.00   2.79952962   0.09474910
902.00   2.79710351   0.09506337
903.00   2.79467479   0.09537834
904.00   2.79224346   0.09569400
905.00   2.78980952   0.09601034
906.00   2.78737297   0.09632738
907.00   2.78493381   0.09664511
908.00   2.78249203   0.09696353
909.00   2.78004765   0.09728264
910.00   2.77760066   0.09760245
911.00   2.77515105   0.09792296
912.00   2.77269884   0.09824416
913.00   2.77024402   0.09856605
914.00   2.76778659   0.09888864
915.00   2.76532655   0.09921194
916.00   2.76286390   0.09953592
917.00   2.76039865   0.09986061
918.00   2.75793078   0.10018600
919.00   2.75546031   0.10051209
920.00   2.75298724   0.10083888
921.00   2.75051155   0.10116637
922.00   2.74803326   0.10149457
923.00   2.74555236   0.10182347
924.00   2.74306886   0.10215307
925.00   2.74058275   0.10248338
926.00   2.73809403   0.10281439
927.00   2.73560271   0.10314611
928.00   2.73310878   0.10347854
929.00   2.73061225   0.10381167
930.00   2.72811311   0.10414552
931.00   2.72561137   0.10448007
932.00   2.72310703   0.10481533
933.00   2.72060008   0.10515131
934.00   2.71809052   0.10548799
935.00   2.71557837   0.10582539
936.00   2.71306361   0.10616350
937.00   2.71054625   0.10650232
938.00   2.70802628   0.10684186
939.00   2.70550372   0.10718212
940.00   2.70297855   0.10752309
941.00   2.70045078   0.10786477
942.00   2.69792041   0.10820718
943.00   2.69538744   0.10855030
944.00   2.69285186   0.10889414
945.00   2.69031369   0.10923870
946.00   2.68777292   0.10958398
947.00   2.68522954   0.10992998
948.00   2.68268357   0.11027670
949.00   2.68013499   0.11062414
950.00   2.67758382   0.11097231
951.00   2.67503005   0.11132120
952.00   2.67247368   0.11167082
953.00   2.66991471   0.11202116
954.00   2.66735314   0.11237223
955.00   2.66478898   0.11272402
956.00   2.66222222   0.11307654
957.00   2.65965286   0.11342979
958.00   2.65708090   0.11378377
959.00   2.65450635   0.11413847
960.00   2.65192920   0.11449391
961.00   2.64934945   0.11485008
962.00   2.64676711   0.11520698
963.00   2.64418217   0.11556461
964.00   2.64159464   0.11592298
965.00   2.63900451   0.11628208
966.00   2.63641178   0.11664191
967.00   2.63381647   0.11700248
968.00   2.63121855   0.11736379
969.00   2.62861805   0.11772583
970.00   2.62601495   0.11808861
971.00   2.62340925   0.11845212
972.00   2.62080097   0.11881638
973.00   2.61819009   0.11918138
974.00   2.61557662   0.11954711
975.00   2.61296055   0.11991359
976.00   2.61034190   0.12028081
977.00   2.60772065   0.12064877
978.00   2.60509681   0.12101748
979.00   2.60247038   0.12138692
980.00   2.59984135   0.12175712
981.00   2.59720974   0.12212806
982.00   2.59457554   0.12249974
983.00   2.59193875   0.12287217
984.00   2.58929936   0.12324535
985.00   2.58665739   0.12361928
986.00   2.58401283   0.12399395
987.00   2.58136568   0.12436938
988.00   2.57871594   0.12474555
989.00   2.57606361   0.12512248
990.00   2.57340870   0.12550016
991.00   2.57075119   0.12587859
992.00   2.56809110   0.12625777
993.00   2.56542842   0.12663771
994.00   2.56276316   0.12701840
995.00   2.56009530   0.12739985
996.00   2.55742487   0.12778206
997.00   2.55475184   0.12816502
998.00   2.55207623   0.12854873
999.00   2.54939803   0.12893321
1000.00   2.54671725   0.12931845
1001.00   2.54403389   0.12970444
1002.00   2.54134794   0.13009120
1003.00   2.53865940   0.13047871
1004.00   2.53596828   0.13086699
1005.00   2.53327458   0.13125603
1006.00   2.53057829   0.13164584
1007.00   2.52787942   0.13203640
1008.00   2.52517797   0.13242773
1009.00   2.52247393   0.13281983
1010.00   2.51976731   0.13321270
1011.00   2.51705811   0.13360633
1012.00   2.51434633   0.13400072
1013.00   2.51163196   0.13439589
1014.00   2.50891502   0.13479182
1015.00   2.50619549   0.13518853
1016.00   2.50347338   0.13558600
1017.00   2.50074870   0.13598425
1018.00   2.49802143   0.13638327
1019.00   2.49529158   0.13678306
1020.00   2.49255916   0.13718362
1021.00   2.48982415   0.13758496
1022.00   2.48708657   0.13798707
1023.00   2.48434640   0.13838995
1024.00   2.48160366   0.13879362
1025.00   2.47885834   0.13919806
1026.00   2.47611044   0.13960327
1027.00   2.47335997   0.14000927
1028.00   2.47060691   0.14041604
1029.00   2.46785129   0.14082359
1030.00   2.46509308   0.14123193
1031.00   2.46233230   0.14164104
1032.00   2.45956894   0.14205094
1033.00   2.45680301   0.14246162
1034.00   2.45403450   0.14287308
1035.00   2.45126341   0.14328532
1036.00   2.44848975   0.14369835
1037.00   2.44571352   0.14411217
1038.00   2.44293471   0.14452677
1039.00   2.44015333   0.14494216
1040.00   2.43736937   0.14535833
1041.00   2.43458284   0.14577530
1042.00   2.43179374   0.14619305
1043.00   2.42900207   0.14661159
1044.00   2.42620782   0.14703092
1045.00   2.42341100   0.14745104
1046.00   2.42061161   0.14787196
1047.00   2.41780965   0.14829366
1048.00   2.41500511   0.14871616
1049.00   2.41219801   0.14913946
1050.00   2.40938833   0.14956354
1051.00   2.40657609   0.14998843
1052.00   2.40376127   0.15041411
1053.00   2.40094388   0.15084058
1054.00   2.39812393   0.15126785
1055.00   2.39530140   0.15169592
1056.00   2.39247631   0.15212479
1057.00   2.38964865   0.15255446
1058.00   2.38681842   0.15298493
1059.00   2.38398562   0.15341620
1060.00   2.38115025   0.15384827
1061.00   2.37831232   0.15428114
1062.00   2.37547182   0.15471482
1063.00   2.37262875   0.15514930
1064.00   2.36978312   0.15558458
1065.00   2.36693492   0.15602067
1066.00   2.36408416   0.15645756
1067.00   2.36123082   0.15689526
1068.00   2.35837493   0.15733377
1069.00   2.35551647   0.15777309
1070.00   2.35265544   0.15821321
1071.00   2.34979185   0.15865414
1072.00   2.34692570   0.15909589
1073.00   2.34405698   0.15953844
1074.00   2.34118570   0.15998181
1075.00   2.33831185   0.16042598
1076.00   2.33543544   0.16087097
1077.00   2.33255647   0.16131678
1078.00   2.32967494   0.16176340
1079.00   2.32679085   0.16221083
1080.00   2.32390419   0.16265908
1081.00   2.32101497   0.16310814
1082.00   2.31812320   0.16355802
1083.00   2.31522886   0.16400872
1084.00   2.31233196   0.16446024
1085.00   2.30943250   0.16491258
1086.00   2.30653048   0.16536573
1087.00   2.30362590   0.16581971
1088.00   2.30071876   0.16627451
1089.00   2.29780907   0.16673013
1090.00   2.29489681   0.16718657
1091.00   2.29198200   0.16764384
1092.00   2.28906463   0.16810193
1093.00   2.28614470   0.16856084
1094.00   2.28322221   0.16902058
1095.00   2.28029717   0.16948115
1096.00   2.27736957   0.16994254
1097.00   2.27443942   0.17040476
1098.00   2.27150670   0.17086781
1099.00   2.26857144   0.17133169
1100.00   2.26563361   0.17179639
1101.00   2.26269324   0.17226193
1102.00   2.25975030   0.17272830
1103.00   2.25680482   0.17319550
1104.00   2.25385677   0.17366353
1105.00   2.25090618   0.17413240
1106.00   2.24795303   0.17460210
1107.00   2.24499733   0.17507263
1108.00   2.24203907   0.17554400
1109.00   2.23907826   0.17601620
1110.00   2.23611490   0.17648924
1111.00   2.23314899   0.17696312
1112.00   2.23018053   0.17743784
1113.00   2.22720951   0.17791340
1114.00   2.22423595   0.17838979
1115.00   2.22125983   0.17886703
1116.00   2.21828116   0.17934510
1117.00   2.21529995   0.17982402
1118.00   2.21231618   0.18030378
1119.00   2.20932986   0.18078438
1120.00   2.20634100   0.18126582
1121.00   2.20334958   0.18174811
1122.00   2.20035562   0.18223125
1123.00   2.19735911   0.18271523
1124.00   2.19436005   0.18320006
1125.00   2.19135844   0.18368573
1126.00   2.18835429   0.18417225
1127.00   2.18534759   0.18465962
1128.00   2.18233834   0.18514784
1129.00   2.17932654   0.18563691
1130.00   2.17631220   0.18612683
1131.00   2.17329532   0.18661760
1132.00   2.17027589   0.18710922
1133.00   2.16725391   0.18760170
1134.00   2.16422939   0.18809503
1135.00   2.16120233   0.18858921
1136.00   2.15817272   0.18908425
1137.00   2.15514057   0.18958014
1138.00   2.15210587   0.19007689
1139.00   2.14906863   0.19057450
1140.00   2.14602885   0.19107296
1141.00   2.14298652   0.19157228
1142.00   2.13994166   0.19207246
1143.00   2.13689425   0.19257350
1144.00   2.13384430   0.19307540
1145.00   2.13079181   0.19357816
1146.00   2.12773678   0.19408178
1147.00   2.12467921   0.19458627
1148.00   2.12161909   0.19509162
1149.00   2.11855644   0.19559783
1150.00   2.11549125   0.19610490
1151.00   2.11242352   0.19661285
1152.00   2.10935325   0.19712165
1153.00   2.10628044   0.19763133
1154.00   2.10320509   0.19814187
1155.00   2.10012721   0.19865328
1156.00   2.09704679   0.19916555
1157.00   2.09396383   0.19967870
1158.00   2.09087833   0.20019271
1159.00   2.08779030   0.20070760
1160.00   2.08469973   0.20122336
1161.00   2.08160662   0.20173999
1162.00   2.07851098   0.20225749
1163.00   2.07541280   0.20277587
1164.00   2.07231209   0.20329512
1165.00   2.06920885   0.20381524
1166.00   2.06610307   0.20433625
1167.00   2.06299475   0.20485812
1168.00   2.05988391   0.20538088
1169.00   2.05677052   0.20590451
1170.00   2.05365461   0.20642902
1171.00   2.05053616   0.20695440
1172.00   2.04741518   0.20748067
1173.00   2.04429167   0.20800782
1174.00   2.04116563   0.20853585
1175.00   2.03803705   0.20906476
1176.00   2.03490595   0.20959455
1177.00   2.03177231   0.21012523
1178.00   2.02863615   0.21065679
1179.00   2.02549745   0.21118923
1180.00   2.02235622   0.21172256
1181.00   2.01921247   0.21225678
1182.00   2.01606618   0.21279188
1183.00   2.01291737   0.21332787
1184.00   2.00976603   0.21386475
1185.00   2.00661216   0.21440251
1186.00   2.00345576   0.21494117
1187.00   2.00029683   0.21548071
1188.00   1.99713538   0.21602115
1189.00   1.99397140   0.21656247
1190.00   1.99080490   0.21710469
1191.00   1.98763587   0.21764780
1192.00   1.98446431   0.21819181
1193.00   1.98129023   0.21873670
1194.00   1.97811362   0.21928250
1195.00   1.97493449   0.21982919
1196.00   1.97175283   0.22037677
1197.00   1.96856865   0.22092525
1198.00   1.96538195   0.22147463
1199.00   1.96219272   0.22202491
1200.00   1.95900097   0.22257608
1201.00   1.95580669   0.22312816
1202.00   1.95260990   0.22368114
1203.00   1.94941058   0.22423501
1204.00   1.94620874   0.22478979
1205.00   1.94300438   0.22534547
1206.00   1.93979750   0.22590205
1207.00   1.93658810   0.22645954
1208.00   1.93337617   0.22701793
1209.00   1.93016173   0.22757723
1210.00   1.92694477   0.22813743
1211.00   1.92372529   0.22869854
1212.00   1.92050328   0.22926055
1213.00   1.91727876   0.22982348
1214.00   1.91405173   0.23038731
1215.00   1.91082217   0.23095205
1216.00   1.90759010   0.23151770
1217.00   1.90435551   0.23208426
1218.00   1.90111840   0.23265173
1219.00   1.89787877   0.23322012
1220.00   1.89463663   0.23378941
1221.00   1.89139198   0.23435962
1222.00   1.88814481   0.23493075
1223.00   1.88489512   0.23550278
1224.00   1.88164292   0.23607574
1225.00   1.87838820   0.23664961
1226.00   1.87513097   0.23722439
1227.00   1.87187122   0.23780010
1228.00   1.86860896   0.23837672
1229.00   1.86534419   0.23895426
1230.00   1.86207691   0.23953271
1231.00   1.85880711   0.24011209
1232.00   1.85553480   0.24069239
1233.00   1.85225998   0.24127361
1234.00   1.84898265   0.24185576
1235.00   1.84570280   0.24243882
1236.00   1.84242045   0.24302281
1237.00   1.83913559   0.24360772
1238.00   1.83584821   0.24419356
1239.00   1.83255833   0.24478032
1240.00   1.82926593   0.24536801
1241.00   1.82597103   0.24595663
1242.00   1.82267362   0.24654617
1243.00   1.81937370   0.24713665
1244.00   1.81607127   0.24772805
1245.00   1.81276633   0.24832038
1246.00   1.80945889   0.24891364
1247.00   1.80614894   0.24950783
1248.00   1.80283648   0.25010295
1249.00   1.79952152   0.25069900
1250.00   1.79620405   0.25129599
1251.00   1.79288407   0.25189391
1252.00   1.78956159   0.25249277
1253.00   1.78623661   0.25309256
1254.00   1.78290912   0.25369328
1255.00   1.77957913   0.25429495
1256.00   1.77624663   0.25489755
1257.00   1.77291163   0.25550108
1258.00   1.76957413   0.25610556
1259.00   1.76623412   0.25671097
1260.00   1.76289161   0.25731733
1261.00   1.75954660   0.25792462
1262.00   1.75619908   0.25853285
1263.00   1.75284907   0.25914203
1264.00   1.74949656   0.25975215
1265.00   1.74614154   0.26036321
1266.00   1.74278402   0.26097522
1267.00   1.73942401   0.26158817
1268.00   1.73606149   0.26220206
1269.00   1.73269647   0.26281690
1270.00   1.72932896   0.26343269
1271.00   1.72595895   0.26404942
1272.00   1.72258644   0.26466711
1273.00   1.71921143   0.26528574
1274.00   1.71583392   0.26590532
1275.00   1.71245392   0.26652585
1276.00   1.70907142   0.26714732
1277.00   1.70568642   0.26776976
1278.00   1.70229893   0.26839314
1279.00   1.69890894   0.26901747
1280.00   1.69551646   0.26964276
1281.00   1.69212148   0.27026900
1282.00   1.68872400   0.27089620
1283.00   1.68532403   0.27152435
1284.00   1.68192157   0.27215346
1285.00   1.67851662   0.27278352
1286.00   1.67510917   0.27341454
1287.00   1.67169923   0.27404652
1288.00   1.66828679   0.27467946
1289.00   1.66487187   0.27531335
1290.00   1.66145445   0.27594821
1291.00   1.65803454   0.27658403
1292.00   1.65461214   0.27722080
1293.00   1.65118725   0.27785854
1294.00   1.64775986   0.27849725
1295.00   1.64432999   0.27913691
1296.00   1.64089763   0.27977754
1297.00   1.63746278   0.28041913
1298.00   1.63402544   0.28106169
1299.00   1.63058561   0.28170522
1300.00   1.62714330   0.28234971
1301.00   1.62369849   0.28299517
1302.00   1.62025120   0.28364159
1303.00   1.61680142   0.28428899
1304.00   1.61334915   0.28493735
1305.00   1.60989440   0.28558668
1306.00   1.60643716   0.28623699
1307.00   1.60297744   0.28688826
1308.00   1.59951523   0.28754051
1309.00   1.59605054   0.28819373
1310.00   1.59258336   0.28884792
1311.00   1.58911369   0.28950309
1312.00   1.58564155   0.29015923
1313.00   1.58216692   0.29081635
1314.00   1.57868980   0.29147444
1315.00   1.57521021   0.29213351
1316.00   1.57172813   0.29279356
1317.00   1.56824357   0.29345458
1318.00   1.56475652   0.29411658
1319.00   1.56126700   0.29477956
1320.00   1.55777499   0.29544353
1321.00   1.55428051   0.29610847
1322.00   1.55078354   0.29677439
1323.00   1.54728410   0.29744130
1324.00   1.54378217   0.29810918
1325.00   1.54027777   0.29877806
1326.00   1.53677088   0.29944791
1327.00   1.53326152   0.30011875
1328.00   1.52974968   0.30079057
1329.00   1.52623536   0.30146338
1330.00   1.52271857   0.30213718
1331.00   1.51919930   0.30281196
1332.00   1.51567755   0.30348774
1333.00   1.51215332   0.30416450
1334.00   1.50862662   0.30484225
1335.00   1.50509745   0.30552099
1336.00   1.50156580   0.30620072
1337.00   1.49803167   0.30688144
1338.00   1.49449507   0.30756315
1339.00   1.49095600   0.30824585
1340.00   1.48741445   0.30892955
1341.00   1.48387043   0.30961424
1342.00   1.48032394   0.31029993
1343.00   1.47677497   0.31098661
1344.00   1.47322353   0.31167429
1345.00   1.46966962   0.31236296
1346.00   1.46611324   0.31305263
1347.00   1.46255439   0.31374330
1348.00   1.45899306   0.31443497
1349.00   1.45542927   0.31512764
1350.00   1.45186300   0.31582130
1351.00   1.44829427   0.31651597
1352.00   1.44472307   0.31721164
1353.00   1.44114940   0.31790830
1354.00   1.43757326   0.31860598
1355.00   1.43399465   0.31930465
1356.00   1.43041357   0.32000433
1357.00   1.42683003   0.32070501
1358.00   1.42324402   0.32140670
1359.00   1.41965555   0.32210939
1360.00   1.41606460   0.32281309
1361.00   1.41247120   0.32351780
1362.00   1.40887532   0.32422351
1363.00   1.40527698   0.32493023
1364.00   1.40167618   0.32563797
1365.00   1.39807291   0.32634671
1366.00   1.39446718   0.32705646
1367.00   1.39085898   0.32776722
1368.00   1.38724833   0.32847899
1369.00   1.38363520   0.32919178
1370.00   1.38001962   0.32990558
1371.00   1.37640157   0.33062039
1372.00   1.37278107   0.33133622
1373.00   1.36915810   0.33205306
1374.00   1.36553267   0.33277092
1375.00   1.36190478   0.33348979
1376.00   1.35827443   0.33420968
1377.00   1.35464162   0.33493059
1378.00   1.35100635   0.33565251
1379.00   1.34736862   0.33637546
1380.00   1.34372843   0.33709942
1381.00   1.34008578   0.33782441
1382.00   1.33644068   0.33855041
1383.00   1.33279312   0.33927744
1384.00   1.32914310   0.34000549
1385.00   1.32549063   0.34073456
1386.00   1.32183569   0.34146465
1387.00   1.31817831   0.34219577
1388.00   1.31451846   0.34292792
1389.00   1.31085616   0.34366109
1390.00   1.30719141   0.34439528
1391.00   1.30352420   0.34513050
1392.00   1.29985454   0.34586675
1393.00   1.29618242   0.34660403
1394.00   1.29250786   0.34734233
1395.00   1.28883083   0.34808167
1396.00   1.28515136   0.34882203
1397.00   1.28146943   0.34956343
1398.00   1.27778505   0.35030585
1399.00   1.27409822   0.35104931
1400.00   1.27040894   0.35179380
1401.00   1.26671721   0.35253933
1402.00   1.26302303   0.35328588
1403.00   1.25932640   0.35403348
1404.00   1.25562731   0.35478210
1405.00   1.25192578   0.35553177
1406.00   1.24822180   0.35628247
1407.00   1.24451538   0.35703420
1408.00   1.24080650   0.35778698
1409.00   1.23709518   0.35854079
1410.00   1.23338141   0.35929564
1411.00   1.22966519   0.36005153
1412.00   1.22594652   0.36080847
1413.00   1.22222541   0.36156644
1414.00   1.21850186   0.36232545
1415.00   1.21477586   0.36308551
1416.00   1.21104741   0.36384661
1417.00   1.20731652   0.36460875
1418.00   1.20358319   0.36537194
1419.00   1.19984741   0.36613617
1420.00   1.19610919   0.36690145
1421.00   1.19236852   0.36766777
1422.00   1.18862541   0.36843515
1423.00   1.18487986   0.36920356
1424.00   1.18113187   0.36997303
1425.00   1.17738144   0.37074355
1426.00   1.17362857   0.37151511
1427.00   1.16987325   0.37228772
1428.00   1.16611550   0.37306139
1429.00   1.16235530   0.37383611
1430.00   1.15859267   0.37461188
1431.00   1.15482760   0.37538870
1432.00   1.15106009   0.37616657
1433.00   1.14729014   0.37694550
1434.00   1.14351775   0.37772548
1435.00   1.13974292   0.37850652
1436.00   1.13596566   0.37928862
1437.00   1.13218596   0.38007177
1438.00   1.12840383   0.38085597
1439.00   1.12461926   0.38164124
1440.00   1.12083225   0.38242756
1441.00   1.11704281   0.38321495
1442.00   1.11325093   0.38400339
1443.00   1.10945662   0.38479289
1444.00   1.10565987   0.38558346
1445.00   1.10186069   0.38637508
1446.00   1.09805908   0.38716777
1447.00   1.09425504   0.38796152
1448.00   1.09044856   0.38875634
1449.00   1.08663965   0.38955222
1450.00   1.08282831   0.39034916
1451.00   1.07901454   0.39114717
1452.00   1.07519833   0.39194625
1453.00   1.07137970   0.39274639
1454.00   1.06755864   0.39354760
1455.00   1.06373514   0.39434988
1456.00   1.05990922   0.39515322
1457.00   1.05608087   0.39595764
1458.00   1.05225009   0.39676313
1459.00   1.04841688   0.39756968
1460.00   1.04458125   0.39837731
1461.00   1.04074319   0.39918601
1462.00   1.03690270   0.39999578
1463.00   1.03305978   0.40080663
1464.00   1.02921444   0.40161855
1465.00   1.02536667   0.40243154
1466.00   1.02151648   0.40324561
1467.00   1.01766386   0.40406076
1468.00   1.01380882   0.40487698
1469.00   1.00995135   0.40569428
1470.00   1.00609146   0.40651266
1471.00   1.00222915   0.40733211
1472.00   0.99836441   0.40815264
1473.00   0.99449725   0.40897426
1474.00   0.99062767   0.40979695
1475.00   0.98675567   0.41062072
1476.00   0.98288124   0.41144558
1477.00   0.97900440   0.41227152
1478.00   0.97512513   0.41309854
1479.00   0.97124345   0.41392664
1480.00   0.96735934   0.41475583
1481.00   0.96347282   0.41558610
1482.00   0.95958387   0.41641746
1483.00   0.95569251   0.41724991
1484.00   0.95179873   0.41808344
1485.00   0.94790253   0.41891806
1486.00   0.94400392   0.41975376
1487.00   0.94010289   0.42059056
1488.00   0.93619944   0.42142844
1489.00   0.93229357   0.42226741
1490.00   0.92838529   0.42310748
1491.00   0.92447460   0.42394863
1492.00   0.92056149   0.42479088
1493.00   0.91664596   0.42563422
1494.00   0.91272803   0.42647865
1495.00   0.90880767   0.42732418
1496.00   0.90488491   0.42817080
1497.00   0.90095973   0.42901851
1498.00   0.89703214   0.42986732
1499.00   0.89310213   0.43071723
1500.00   0.88916972   0.43156823
1501.00   0.88523489   0.43242033
1502.00   0.88129766   0.43327353
1503.00   0.87735801   0.43412783
1504.00   0.87341595   0.43498322
1505.00   0.86947149   0.43583972
1506.00   0.86552461   0.43669732
1507.00   0.86157533   0.43755602
1508.00   0.85762363   0.43841582
1509.00   0.85366953   0.43927672
1510.00   0.84971302   0.44013873
1511.00   0.84575411   0.44100184
1512.00   0.84179278   0.44186605
1513.00   0.83782905   0.44273137
1514.00   0.83386292   0.44359779
1515.00   0.82989438   0.44446532
1516.00   0.82592343   0.44533396
1517.00   0.82195008   0.44620371
1518.00   0.81797433   0.44707456
1519.00   0.81399617   0.44794652
1520.00   0.81001561   0.44881959
1521.00   0.80603264   0.44969377
1522.00   0.80204727   0.45056907
1523.00   0.79805950   0.45144547
1524.00   0.79406933   0.45232299
1525.00   0.79007676   0.45320161
1526.00   0.78608178   0.45408135
1527.00   0.78208441   0.45496221
1528.00   0.77808463   0.45584418
1529.00   0.77408246   0.45672726
1530.00   0.77007789   0.45761146
1531.00   0.76607091   0.45849678
1532.00   0.76206154   0.45938321
1533.00   0.75804977   0.46027076
1534.00   0.75403560   0.46115943
1535.00   0.75001904   0.46204922
1536.00   0.74600007   0.46294013
1537.00   0.74197872   0.46383216
1538.00   0.73795496   0.46472530
1539.00   0.73392881   0.46561957
1540.00   0.72990027   0.46651497
1541.00   0.72586933   0.46741148
1542.00   0.72183599   0.46830912
1543.00   0.71780026   0.46920788
1544.00   0.71376214   0.47010776
1545.00   0.70972162   0.47100877
1546.00   0.70567871   0.47191091
1547.00   0.70163341   0.47281417
1548.00   0.69758572   0.47371856
1549.00   0.69353564   0.47462408
1550.00   0.68948316   0.47553073
1551.00   0.68542830   0.47643850
1552.00   0.68137104   0.47734740
1553.00   0.67731139   0.47825744
1554.00   0.67324936   0.47916860
1555.00   0.66918493   0.48008090
1556.00   0.66511812   0.48099433
1557.00   0.66104892   0.48190889
1558.00   0.65697733   0.48282458
1559.00   0.65290335   0.48374141
1560.00   0.64882699   0.48465937
1561.00   0.64474824   0.48557847
1562.00   0.64066710   0.48649870
1563.00   0.63658358   0.48742007
1564.00   0.63249767   0.48834257
1565.00   0.62840938   0.48926622
1566.00   0.62431870   0.49019100
1567.00   0.62022564   0.49111692
1568.00   0.61613020   0.49204398
1569.00   0.61203237   0.49297218
1570.00   0.60793216   0.49390152
1571.00   0.60382957   0.49483200
1572.00   0.59972459   0.49576362
1573.00   0.59561724   0.49669639
1574.00   0.59150750   0.49763030
1575.00   0.58739538   0.49856535
1576.00   0.58328089   0.49950155
1577.00   0.57916401   0.50043889
1578.00   0.57504475   0.50137738
1579.00   0.57092312   0.50231701
1580.00   0.56679910   0.50325780
1581.00   0.56267271   0.50419972
1582.00   0.55854394   0.50514280
1583.00   0.55441279   0.50608703
1584.00   0.55027927   0.50703240
1585.00   0.54614336   0.50797892
1586.00   0.54200509   0.50892660
1587.00   0.53786444   0.50987543
1588.00   0.53372141   0.51082540
1589.00   0.52957601   0.51177653
1590.00   0.52542823   0.51272882
1591.00   0.52127808   0.51368225
1592.00   0.51712555   0.51463685
1593.00   0.51297066   0.51559259
1594.00   0.50881339   0.51654949
1595.00   0.50465375   0.51750755
1596.00   0.50049173   0.51846677
1597.00   0.49632735   0.51942714
1598.00   0.49216059   0.52038867
1599.00   0.48799146   0.52135135
1600.00   0.48381997   0.52231520
1601.00   0.47964610   0.52328021
1602.00   0.47546987   0.52424638
1603.00   0.47129126   0.52521371
1604.00   0.46711029   0.52618220
1605.00   0.46292695   0.52715185
1606.00   0.45874124   0.52812266
1607.00   0.45455317   0.52909464
1608.00   0.45036272   0.53006778
1609.00   0.44616992   0.53104209
1610.00   0.44197474   0.53201756
1611.00   0.43777720   0.53299420
1612.00   0.43357730   0.53397201
1613.00   0.42937503   0.53495098
1614.00   0.42517040   0.53593112
1615.00   0.42096340   0.53691243
1616.00   0.41675404   0.53789491
1617.00   0.41254232   0.53887855
1618.00   0.40832824   0.53986337
1619.00   0.40411179   0.54084936
1620.00   0.39989298   0.54183652
1621.00   0.39567181   0.54282485
1622.00   0.39144828   0.54381435
1623.00   0.38722239   0.54480503
1624.00   0.38299414   0.54579688
1625.00   0.37876354   0.54678991
1626.00   0.37453057   0.54778411
1627.00   0.37029524   0.54877948
1628.00   0.36605756   0.54977604
1629.00   0.36181751   0.55077377
1630.00   0.35757512   0.55177267
1631.00   0.35333036   0.55277276
1632.00   0.34908325   0.55377402
1633.00   0.34483378   0.55477647
1634.00   0.34058196   0.55578009
1635.00   0.33632778   0.55678489
1636.00   0.33207124   0.55779088
1637.00   0.32781236   0.55879804
1638.00   0.32355111   0.55980639
1639.00   0.31928752   0.56081592
1640.00   0.31502157   0.56182664
1641.00   0.31075327   0.56283854
1642.00   0.30648262   0.56385162
1643.00   0.30220962   0.56486589
1644.00   0.29793426   0.56588135
1645.00   0.29365656   0.56689799
1646.00   0.28937650   0.56791582
1647.00   0.28509410   0.56893484
1648.00   0.28080934   0.56995505
1649.00   0.27652224   0.57097644
1650.00   0.27223279   0.57199903
1651.00   0.26794099   0.57302280
1652.00   0.26364684   0.57404777
1653.00   0.25935035   0.57507392
1654.00   0.25505150   0.57610127
1655.00   0.25075032   0.57712982
1656.00   0.24644678   0.57815955
1657.00   0.24214090   0.57919048
1658.00   0.23783268   0.58022260
1659.00   0.23352211   0.58125592
1660.00   0.22920920   0.58229044
1661.00   0.22489394   0.58332615
1662.00   0.22057634   0.58436305
1663.00   0.21625640   0.58540116
1664.00   0.21193411   0.58644046
1665.00   0.20760949   0.58748096
1666.00   0.20328252   0.58852266
1667.00   0.19895321   0.58956556
1668.00   0.19462156   0.59060967
1669.00   0.19028757   0.59165497
1670.00   0.18595124   0.59270147
1671.00   0.18161257   0.59374918
1672.00   0.17727156   0.59479809
1673.00   0.17292821   0.59584820
1674.00   0.16858253   0.59689952
1675.00   0.16423451   0.59795204
1676.00   0.15988415   0.59900577
1677.00   0.15553145   0.60006070
1678.00   0.15117642   0.60111684
1679.00   0.14681905   0.60217418
1680.00   0.14245935   0.60323274
1681.00   0.13809731   0.60429250
1682.00   0.13373294   0.60535347
1683.00   0.12936623   0.60641565
1684.00   0.12499719   0.60747904
1685.00   0.12062582   0.60854364
1686.00   0.11625211   0.60960946
1687.00   0.11187608   0.61067648
1688.00   0.10749771   0.61174472
1689.00   0.10311701   0.61281417
1690.00   0.09873397   0.61388483
1691.00   0.09434861   0.61495671
1692.00   0.08996092   0.61602980
1693.00   0.08557090   0.61710411
1694.00   0.08117855   0.61817963
1695.00   0.07678387   0.61925638
1696.00   0.07238686   0.62033433
1697.00   0.06798752   0.62141351
1698.00   0.06358586   0.62249390
1699.00   0.05918187   0.62357552
1700.00   0.05477555   0.62465835
1701.00   0.05036691   0.62574240
1702.00   0.04595594   0.62682768
1703.00   0.04154265   0.62791417
1704.00   0.03712703   0.62900189
1705.00   0.03270909   0.63009083
1706.00   0.02828882   0.63118099
1707.00   0.02386624   0.63227238
1708.00   0.01944132   0.63336499
1709.00   0.01501409   0.63445883
1710.00   0.01058453   0.63555389
1711.00   0.00615266   0.63665018
1712.00   0.00171846   0.63774769
1713.00  -0.00271806   0.63884643
1714.00  -0.00715690   0.63994640
1715.00  -0.01159806   0.64104760
1716.00  -0.01604154   0.64215003
1717.00  -0.02048734   0.64325369
1718.00  -0.02493545   0.64435857
1719.00  -0.02938589   0.64546469
1720.00  -0.03383864   0.64657204
1721.00  -0.03829371   0.64768062
1722.00  -0.04275109   0.64879044
1723.00  -0.04721079   0.64990149
1724.00  -0.05167281   0.65101377
1725.00  -0.05613714   0.65212728
1726.00  -0.06060379   0.65324204
1727.00  -0.06507275   0.65435802
1728.00  -0.06954402   0.65547525
1729.00  -0.07401761   0.65659370
1730.00  -0.07849351   0.65771340
1731.00  -0.08297173   0.65883434
1732.00  -0.08745225   0.65995651
1733.00  -0.09193509   0.66107992
1734.00  -0.09642024   0.66220457
1735.00  -0.10090770   0.66333047
1736.00  -0.10539747   0.66445760
1737.00  -0.10988954   0.66558598
1738.00  -0.11438393   0.66671559
1739.00  -0.11888063   0.66784645
1740.00  -0.12337964   0.66897855
1741.00  -0.12788095   0.67011190
1742.00  -0.13238457   0.67124649
1743.00  -0.13689050   0.67238233
1744.00  -0.14139874   0.67351941
1745.00  -0.14590928   0.67465774
1746.00  -0.15042212   0.67579731
1747.00  -0.15493728   0.67693813
1748.00  -0.15945473   0.67808020
1749.00  -0.16397450   0.67922352
1750.00  -0.16849656   0.68036809
1751.00  -0.17302093   0.68151391
1752.00  -0.17754760   0.68266097
1753.00  -0.18207657   0.68380929
1754.00  -0.18660785   0.68495886
1755.00  -0.19114143   0.68610968
1756.00  -0.19567731   0.68726176
1757.00  -0.20021549   0.68841508
1758.00  -0.20475597   0.68956966
1759.00  -0.20929875   0.69072550
1760.00  -0.21384383   0.69188259
1761.00  -0.21839120   0.69304094
1762.00  -0.22294088   0.69420054
1763.00  -0.22749286   0.69536140
1764.00  -0.23204713   0.69652351
1765.00  -0.23660370   0.69768688
1766.00  -0.24116256   0.69885152
1767.00  -0.24572372   0.70001741
1768.00  -0.25028718   0.70118456
1769.00  -0.25485293   0.70235297
1770.00  -0.25942098   0.70352264
1771.00  -0.26399132   0.70469357
1772.00  -0.26856396   0.70586577
1773.00  -0.27313888   0.70703922
1774.00  -0.27771611   0.70821394
1775.00  -0.28229562   0.70938993
1776.00  -0.28687743   0.71056718
1777.00  -0.29146152   0.71174569
1778.00  -0.29604791   0.71292547
1779.00  -0.30063659   0.71410651
1780.00  -0.30522756   0.71528882
1781.00  -0.30982082   0.71647240
1782.00  -0.31441637   0.71765724
1783.00  -0.31901420   0.71884336
1784.00  -0.32361433   0.72003074
1785.00  -0.32821674   0.72121939
1786.00  -0.33282144   0.72240931
1787.00  -0.33742843   0.72360051
1788.00  -0.34203770   0.72479297
1789.00  -0.34664926   0.72598671
1790.00  -0.35126311   0.72718171
1791.00  -0.35587924   0.72837799
1792.00  -0.36049765   0.72957555
1793.00  -0.36511835   0.73077437
1794.00  -0.36974133   0.73197448
1795.00  -0.37436660   0.73317585
1796.00  -0.37899415   0.73437851
1797.00  -0.38362398   0.73558244
1798.00  -0.38825609   0.73678764
1799.00  -0.39289048   0.73799413
1800.00  -0.39752716   0.73920189
1801.00  -0.40216611   0.74041093
1802.00  -0.40680735   0.74162125
1803.00  -0.41145086   0.74283285
1804.00  -0.41609666   0.74404573
1805.00  -0.42074473   0.74525989
1806.00  -0.42539508   0.74647533
1807.00  -0.43004771   0.74769206
1808.00  -0.43470261   0.74891007
1809.00  -0.43935979   0.75012936
1810.00  -0.44401925   0.75134993
1811.00  -0.44868099   0.75257179
1812.00  -0.45334499   0.75379493
1813.00  -0.45801128   0.75501936
1814.00  -0.46267984   0.75624507
1815.00  -0.46735067   0.75747208
1816.00  -0.47202377   0.75870036
1817.00  -0.47669915   0.75992994
1818.00  -0.48137680   0.76116081
1819.00  -0.48605672   0.76239296
1820.00  -0.49073892   0.76362640
1821.00  -0.49542338   0.76486114
1822.00  -0.50011012   0.76609716
1823.00  -0.50479912   0.76733447
1824.00  -0.50949040   0.76857308
1825.00  -0.51418394   0.76981298
1826.00  -0.51887976   0.77105417
1827.00  -0.52357784   0.77229666
1828.00  -0.52827819   0.77354044
1829.00  -0.53298081   0.77478551
1830.00  -0.53768569   0.77603188
1831.00  -0.54239284   0.77727954
1832.00  -0.54710226   0.77852851
1833.00  -0.55181394   0.77977876
1834.00  -0.55652788   0.78103032
1835.00  -0.56124409   0.78228317
1836.00  -0.56596257   0.78353732
1837.00  -0.57068331   0.78479278
1838.00  -0.57540631   0.78604953
1839.00  -0.58013157   0.78730758
1840.00  -0.58485910   0.78856693
1841.00  -0.58958889   0.78982758
1842.00  -0.59432094   0.79108954
1843.00  -0.59905524   0.79235280
1844.00  -0.60379181   0.79361736
1845.00  -0.60853064   0.79488322
1846.00  -0.61327173   0.79615039
1847.00  -0.61801508   0.79741886
1848.00  -0.62276069   0.79868864
1849.00  -0.62750855   0.79995973
1850.00  -0.63225867   0.80123212
1851.00  -0.63701105   0.80250582
1852.00  -0.64176568   0.80378082
1853.00  -0.64652258   0.80505714
1854.00  -0.65128172   0.80633476
1855.00  -0.65604312   0.80761369
1856.00  -0.66080678   0.80889393
1857.00  -0.66557269   0.81017549
1858.00  -0.67034085   0.81145835
1859.00  -0.67511127   0.81274253
1860.00  -0.67988394   0.81402801
1861.00  -0.68465886   0.81531481
1862.00  -0.68943603   0.81660293
1863.00  -0.69421545   0.81789235
1864.00  -0.69899713   0.81918309
1865.00  -0.70378105   0.82047515
1866.00  -0.70856723   0.82176852
1867.00  -0.71335565   0.82306321
1868.00  -0.71814633   0.82435921
1869.00  -0.72293925   0.82565653
1870.00  -0.72773442   0.82695517
1871.00  -0.73253183   0.82825513
1872.00  -0.73733150   0.82955640
1873.00  -0.74213341   0.83085900
1874.00  -0.74693756   0.83216291
1875.00  -0.75174396   0.83346815
1876.00  -0.75655261   0.83477471
1877.00  -0.76136350   0.83608259
1878.00  -0.76617664   0.83739179
1879.00  -0.77099202   0.83870231
1880.00  -0.77580964   0.84001416
1881.00  -0.78062950   0.84132733
1882.00  -0.78545161   0.84264182
1883.00  -0.79027596   0.84395764
1884.00  -0.79510255   0.84527479
1885.00  -0.79993137   0.84659326
1886.00  -0.80476245   0.84791305
1887.00  -0.80959575   0.84923418
1888.00  -0.81443130   0.85055663
1889.00  -0.81926909   0.85188041
1890.00  -0.82410912   0.85320552
1891.00  -0.82895138   0.85453196
1892.00  -0.83379588   0.85585973
1893.00  -0.83864262   0.85718883
1894.00  -0.84349160   0.85851926
1895.00  -0.84834281   0.85985103
1896.00  -0.85319625   0.86118412
1897.00  -0.85805193   0.86251855
1898.00  -0.86290985   0.86385431
1899.00  -0.86777000   0.86519140
1900.00  -0.87263238   0.86652983
1901.00  -0.87749699   0.86786959
1902.00  -0.88236384   0.86921069
1903.00  -0.88723292   0.87055313
1904.00  -0.89210423   0.87189690
1905.00  -0.89697778   0.87324201
1906.00  -0.90185355   0.87458846
1907.00  -0.90673155   0.87593624
1908.00  -0.91161179   0.87728536
1909.00  -0.91649425   0.87863583
1910.00  -0.92137894   0.87998763
1911.00  -0.92626586   0.88134077
1912.00  -0.93115500   0.88269526
1913.00  -0.93604638   0.88405108
1914.00  -0.94093998   0.88540825
1915.00  -0.94583580   0.88676676
1916.00  -0.95073386   0.88812662
1917.00  -0.95563413   0.88948781
1918.00  -0.96053663   0.89085036
1919.00  -0.96544136   0.89221424
1920.00  -0.97034831   0.89357947
1921.00  -0.97525748   0.89494605
1922.00  -0.98016888   0.89631398
1923.00  -0.98508250   0.89768325
1924.00  -0.98999834   0.89905387
1925.00  -0.99491640   0.90042583
1926.00  -0.99983668   0.90179915
1927.00  -1.00475919   0.90317381
1928.00  -1.00968391   0.90454983
1929.00  -1.01461085   0.90592719
1930.00  -1.01954001   0.90730591
1931.00  -1.02447139   0.90868598
1932.00  -1.02940499   0.91006740
1933.00  -1.03434081   0.91145017
1934.00  -1.03927884   0.91283429
1935.00  -1.04421909   0.91421977
1936.00  -1.04916155   0.91560661
1937.00  -1.05410623   0.91699479
1938.00  -1.05905312   0.91838433
1939.00  -1.06400223   0.91977523
1940.00  -1.06895356   0.92116749
1941.00  -1.07390709   0.92256110
1942.00  -1.07886284   0.92395607
1943.00  -1.08382081   0.92535239
1944.00  -1.08878098   0.92675008
1945.00  -1.09374337   0.92814912
1946.00  -1.09870796   0.92954953
1947.00  -1.10367477   0.93095129
1948.00  -1.10864379   0.93235442
1949.00  -1.11361502   0.93375890
1950.00  -1.11858845   0.93516475
1951.00  -1.12356410   0.93657196
1952.00  -1.12854195   0.93798053
1953.00  -1.13352201   0.93939047
1954.00  -1.13850428   0.94080177
1955.00  -1.14348875   0.94221443
1956.00  -1.14847544   0.94362846
1957.00  -1.15346432   0.94504386
1958.00  -1.15845541   0.94646062
1959.00  -1.16344871   0.94787875
1960.00  -1.16844421   0.94929824
1961.00  -1.17344191   0.95071910
1962.00  -1.17844182   0.95214133
1963.00  -1.18344393   0.95356493
1964.00  -1.18844824   0.95498990
1965.00  -1.19345476   0.95641624
1966.00  -1.19846347   0.95784395
1967.00  -1.20347439   0.95927303
1968.00  -1.20848751   0.96070348
1969.00  -1.21350282   0.96213530
1970.00  -1.21852034   0.96356850
1971.00  -1.22354005   0.96500307
1972.00  -1.22856196   0.96643901
1973.00  -1.23358607   0.96787633
1974.00  -1.23861238   0.96931502
1975.00  -1.24364089   0.97075508
1976.00  -1.24867159   0.97219653
1977.00  -1.25370448   0.97363934
1978.00  -1.25873957   0.97508354
1979.00  -1.26377686   0.97652911
1980.00  -1.26881634   0.97797606
1981.00  -1.27385802   0.97942439
1982.00  -1.27890188   0.98087410
1983.00  -1.28394794   0.98232519
1984.00  -1.28899620   0.98377765
1985.00  -1.29404664   0.98523150
1986.00  -1.29909928   0.98668673
1987.00  -1.30415410   0.98814334
1988.00  -1.30921112   0.98960134
1989.00  -1.31427033   0.99106071
1990.00  -1.31933172   0.99252147
1991.00  -1.32439531   0.99398361
1992.00  -1.32946108   0.99544714
1993.00  -1.33452904   0.99691205
1994.00  -1.33959919   0.99837835
1995.00  -1.34467153   0.99984603
1996.00  -1.34974605   1.00131510
1997.00  -1.35482276   1.00278556
1998.00  -1.35990165   1.00425740
1999.00  -1.36498273   1.00573063
2000.00  -1.37006599   1.00720525
