wavelength(nm)         real         imag
200.00   3.75478486   0.00277532
201.00   3.75332962   0.00281715
202.00   3.75186713   0.00285940
203.00   3.75039739   0.00290207
204.00   3.74892040   0.00294515
205.00   3.74743617   0.00298867
206.00   3.74594469   0.00303260
207.00   3.74444596   0.00307697
208.00   3.74293999   0.00312177
209.00   3.74142677   0.00316700
210.00   3.73990630   0.00321267
211.00   3.73837859   0.00325877
212.00   3.73684364   0.00330531
213.00   3.73530143   0.00335229
214.00   3.73375199   0.00339971
215.00   3.73219529   0.00344758
216.00   3.73063136   0.00349590
217.00   3.72906017   0.00354466
218.00   3.72748175   0.00359388
219.00   3.72589607   0.00364355
220.00   3.72430316   0.00369367
221.00   3.72270300   0.00374426
222.00   3.72109559   0.00379530
223.00   3.71948094   0.00384680
224.00   3.71785905   0.00389877
225.00   3.71622992   0.00395120
226.00   3.71459354   0.00400410
227.00   3.71294992   0.00405747
228.00   3.71129905   0.00411132
229.00   3.70964094   0.00416563
230.00   3.70797559   0.00422043
231.00   3.70630300   0.00427570
232.00   3.70462317   0.00433145
233.00   3.70293609   0.00438768
234.00   3.70124177   0.00444440
235.00   3.69954021   0.00450160
236.00   3.69783141   0.00455929
237.00   3.69611537   0.00461748
238.00   3.69439208   0.00467615
239.00   3.69266156   0.00473532
240.00   3.69092379   0.00479499
241.00   3.68917879   0.00485516
242.00   3.68742654   0.00491582
243.00   3.68566706   0.00497699
244.00   3.68390033   0.00503867
245.00   3.68212636   0.00510085
246.00   3.68034516   0.00516354
247.00   3.67855671   0.00522675
248.00   3.67676103   0.00529046
249.00   3.67495810   0.00535469
250.00   3.67314794   0.00541944
251.00   3.67133054   0.00548471
252.00   3.66950590   0.00555050
253.00   3.66767403   0.00561682
254.00   3.66583491   0.00568366
255.00   3.66398856   0.00575102
256.00   3.66213497   0.00581892
257.00   3.66027414   0.00588735
258.00   3.65840607   0.00595631
259.00   3.65653077   0.00602581
260.00   3.65464823   0.00609585
261.00   3.65275846   0.00616643
262.00   3.65086145   0.00623755
263.00   3.64895720   0.00630922
264.00   3.64704572   0.00638143
265.00   3.64512700   0.00645419
266.00   3.64320104   0.00652750
267.00   3.64126785   0.00660136
268.00   3.63932743   0.00667578
269.00   3.63737977   0.00675076
270.00   3.63542487   0.00682629
271.00   3.63346274   0.00690238
272.00   3.63149338   0.00697904
273.00   3.62951678   0.00705627
274.00   3.62753295   0.00713406
275.00   3.62554189   0.00721241
276.00   3.62354359   0.00729135
277.00   3.62153806   0.00737085
278.00   3.61952529   0.00745093
279.00   3.61750529   0.00753159
280.00   3.61547807   0.00761282
281.00   3.61344360   0.00769464
282.00   3.61140191   0.00777704
283.00   3.60935298   0.00786003
284.00   3.60729683   0.00794361
285.00   3.60523344   0.00802777
286.00   3.60316282   0.00811253
287.00   3.60108497   0.00819788
288.00   3.59899989   0.00828383
289.00   3.59690758   0.00837037
290.00   3.59480803   0.00845752
291.00   3.59270126   0.00854527
292.00   3.59058726   0.00863362
293.00   3.58846603   0.00872258
294.00   3.58633757   0.00881215
295.00   3.58420188   0.00890233
296.00   3.58205896   0.00899312
297.00   3.57990881   0.00908452
298.00   3.57775144   0.00917654
299.00   3.57558683   0.00926919
300.00   3.57341500   0.00936245
301.00   3.57123594   0.00945633
302.00   3.56904966   0.00955084
303.00   3.56685614   0.00964598
304.00   3.56465540   0.00974175
305.00   3.56244743   0.00983814
306.00   3.56023224   0.00993518
307.00   3.55800982   0.01003284
308.00   3.55578017   0.01013115
309.00   3.55354330   0.01023009
310.00   3.55129920   0.01032967
311.00   3.54904788   0.01042990
312.00   3.54678933   0.01053078
313.00   3.54452356   0.01063230
314.00   3.54225056   0.01073447
315.00   3.53997034   0.01083729
316.00   3.53768290   0.01094077
317.00   3.53538823   0.01104490
318.00   3.53308634   0.01114969
319.00   3.53077722   0.01125515
320.00   3.52846088   0.01136126
321.00   3.52613732   0.01146804
322.00   3.52380654   0.01157548
323.00   3.52146853   0.01168359
324.00   3.51912330   0.01179238
325.00   3.51677085   0.01190183
326.00   3.51441118   0.01201196
327.00   3.51204429   0.01212277
328.00   3.50967017   0.01223425
329.00   3.50728884   0.01234642
330.00   3.50490028   0.01245927
331.00   3.50250451   0.01257280
332.00   3.50010151   0.01268702
333.00   3.49769130   0.01280193
334.00   3.49527387   0.01291754
335.00   3.49284921   0.01303383
336.00   3.49041734   0.01315082
337.00   3.48797825   0.01326850
338.00   3.48553194   0.01338689
339.00   3.48307841   0.01350598
340.00   3.48061767   0.01362577
341.00   3.47814971   0.01374626
342.00   3.47567453   0.01386747
343.00   3.47319213   0.01398938
344.00   3.47070252   0.01411200
345.00   3.46820569   0.01423534
346.00   3.46570164   0.01435940
347.00   3.46319038   0.01448417
348.00   3.46067190   0.01460966
349.00   3.45814621   0.01473588
350.00   3.45561330   0.01486281
351.00   3.45307318   0.01499048
352.00   3.45052584   0.01511887
353.00   3.44797129   0.01524799
354.00   3.44540953   0.01537785
355.00   3.44284055   0.01550844
356.00   3.44026436   0.01563976
357.00   3.43768095   0.01577182
358.00   3.43509033   0.01590463
359.00   3.43249250   0.01603818
360.00   3.42988746   0.01617247
361.00   3.42727520   0.01630750
362.00   3.42465574   0.01644329
363.00   3.42202906   0.01657983
364.00   3.41939517   0.01671712
365.00   3.41675407   0.01685516
366.00   3.41410576   0.01699397
367.00   3.41145024   0.01713353
368.00   3.40878751   0.01727385
369.00   3.40611757   0.01741494
370.00   3.40344042   0.01755679
371.00   3.40075606   0.01769940
372.00   3.39806449   0.01784279
373.00   3.39536571   0.01798695
374.00   3.39265973   0.01813188
375.00   3.38994654   0.01827759
376.00   3.38722614   0.01842407
377.00   3.38449853   0.01857134
378.00   3.38176371   0.01871938
379.00   3.37902169   0.01886821
380.00   3.37627246   0.01901783
381.00   3.37351603   0.01916823
382.00   3.37075239   0.01931943
383.00   3.36798155   0.01947141
384.00   3.36520349   0.01962419
385.00   3.36241824   0.01977776
386.00   3.35962578   0.01993214
387.00   3.35682612   0.02008731
388.00   3.35401925   0.02024329
389.00   3.35120517   0.02040006
390.00   3.34838390   0.02055765
391.00   3.34555542   0.02071604
392.00   3.34271974   0.02087525
393.00   3.33987686   0.02103527
394.00   3.33702677   0.02119610
395.00   3.33416948   0.02135774
396.00   3.33130499   0.02152021
397.00   3.32843330   0.02168350
398.00   3.32555441   0.02184761
399.00   3.32266832   0.02201254
400.00   3.31977503   0.02217830
401.00   3.31687453   0.02234489
402.00   3.31396684   0.02251232
403.00   3.31105195   0.02268057
404.00   3.30812986   0.02284966
405.00   3.30520057   0.02301959
406.00   3.30226408   0.02319035
407.00   3.29932040   0.02336196
408.00   3.29636952   0.02353441
409.00   3.29341143   0.02370770
410.00   3.29044616   0.02388184
411.00   3.28747368   0.02405684
412.00   3.28449401   0.02423268
413.00   3.28150714   0.02440938
414.00   3.27851308   0.02458693
415.00   3.27551182   0.02476534
416.00   3.27250337   0.02494461
417.00   3.26948772   0.02512474
418.00   3.26646488   0.02530573
419.00   3.26343484   0.02548759
420.00   3.26039761   0.02567032
421.00   3.25735319   0.02585392
422.00   3.25430157   0.02603839
423.00   3.25124276   0.02622373
424.00   3.24817676   0.02640995
425.00   3.24510356   0.02659705
426.00   3.24202318   0.02678503
427.00   3.23893560   0.02697389
428.00   3.23584083   0.02716363
429.00   3.23273887   0.02735427
430.00   3.22962972   0.02754578
431.00   3.22651338   0.02773819
432.00   3.22338985   0.02793150
433.00   3.22025913   0.02812569
434.00   3.21712122   0.02832078
435.00   3.21397612   0.02851678
436.00   3.21082383   0.02871367
437.00   3.20766436   0.02891146
438.00   3.20449770   0.02911016
439.00   3.20132385   0.02930977
440.00   3.19814281   0.02951028
441.00   3.19495459   0.02971171
442.00   3.19175918   0.02991405
443.00   3.18855658   0.03011730
444.00   3.18534680   0.03032147
445.00   3.18212983   0.03052656
446.00   3.17890568   0.03073257
447.00   3.17567435   0.03093950
448.00   3.17243583   0.03114736
449.00   3.16919012   0.03135615
450.00   3.16593723   0.03156586
451.00   3.16267716   0.03177651
452.00   3.15940991   0.03198809
453.00   3.15613547   0.03220060
454.00   3.15285385   0.03241405
455.00   3.14956505   0.03262845
456.00   3.14626907   0.03284378
457.00   3.14296591   0.03306005
458.00   3.13965557   0.03327728
459.00   3.13633804   0.03349545
460.00   3.13301334   0.03371457
461.00   3.12968146   0.03393464
462.00   3.12634239   0.03415566
463.00   3.12299615   0.03437764
464.00   3.11964273   0.03460058
465.00   3.11628213   0.03482448
466.00   3.11291436   0.03504934
467.00   3.10953940   0.03527516
468.00   3.10615727   0.03550195
469.00   3.10276797   0.03572971
470.00   3.09937148   0.03595844
471.00   3.09596782   0.03618814
472.00   3.09255699   0.03641882
473.00   3.08913898   0.03665047
474.00   3.08571380   0.03688309
475.00   3.08228144   0.03711670
476.00   3.07884190   0.03735130
477.00   3.07539520   0.03758687
478.00   3.07194131   0.03782343
479.00   3.06848026   0.03806098
480.00   3.06501204   0.03829952
481.00   3.06153664   0.03853906
482.00   3.05805407   0.03877959
483.00   3.05456433   0.03902111
484.00   3.05106741   0.03926363
485.00   3.04756333   0.03950716
486.00   3.04405208   0.03975169
487.00   3.04053365   0.03999722
488.00   3.03700806   0.04024375
489.00   3.03347530   0.04049130
490.00   3.02993537   0.04073986
491.00   3.02638827   0.04098943
492.00   3.02283400   0.04124002
493.00   3.01927257   0.04149162
494.00   3.01570396   0.04174424
495.00   3.01212819   0.04199788
496.00   3.00854526   0.04225255
497.00   3.00495516   0.04250824
498.00   3.00135789   0.04276496
499.00   2.99775346   0.04302270
500.00   2.99414186   0.04328148
501.00   2.99052310   0.04354129
502.00   2.98689717   0.04380214
503.00   2.98326408   0.04406403
504.00   2.97962383   0.04432695
505.00   2.97597642   0.04459091
506.00   2.97232184   0.04485592
507.00   2.96866010   0.04512198
508.00   2.96499120   0.04538908
509.00   2.96131513   0.04565723
510.00   2.95763191   0.04592643
511.00   2.95394152   0.04619669
512.00   2.95024398   0.04646800
513.00   2.94653927   0.04674037
514.00   2.94282741   0.04701379
515.00   2.93910839   0.04728829
516.00   2.93538221   0.04756384
517.00   2.93164887   0.04784046
518.00   2.92790837   0.04811815
519.00   2.92416072   0.04839691
520.00   2.92040590   0.04867673
521.00   2.91664394   0.04895764
522.00   2.91287481   0.04923962
523.00   2.90909853   0.04952267
524.00   2.90531510   0.04980681
525.00   2.90152451   0.05009203
526.00   2.89772677   0.05037834
527.00   2.89392187   0.05066572
528.00   2.89010982   0.05095420
529.00   2.88629061   0.05124377
530.00   2.88246425   0.05153443
531.00   2.87863074   0.05182618
532.00   2.87479008   0.05211903
533.00   2.87094227   0.05241298
534.00   2.86708731   0.05270803
535.00   2.86322519   0.05300418
536.00   2.85935593   0.05330144
537.00   2.85547951   0.05359980
538.00   2.85159595   0.05389927
539.00   2.84770523   0.05419985
540.00   2.84380737   0.05450155
541.00   2.83990236   0.05480435
542.00   2.83599020   0.05510828
543.00   2.83207090   0.05541332
544.00   2.82814445   0.05571949
545.00   2.82421085   0.05602677
546.00   2.82027010   0.05633518
547.00   2.81632221   0.05664472
548.00   2.81236718   0.05695539
549.00   2.80840500   0.05726718
550.00   2.80443568   0.05758011
551.00   2.80045921   0.05789418
552.00   2.79647560   0.05820938
553.00   2.79248484   0.05852572
554.00   2.78848695   0.05884320
555.00   2.78448191   0.05916182
556.00   2.78046973   0.05948159
557.00   2.77645040   0.05980251
558.00   2.77242394   0.06012457
559.00   2.76839034   0.06044778
560.00   2.76434960   0.06077215
561.00   2.76030171   0.06109768
562.00   2.75624669   0.06142436
563.00   2.75218453   0.06175220
564.00   2.74811523   0.06208120
565.00   2.74403880   0.06241136
566.00   2.73995522   0.06274269
567.00   2.73586451   0.06307518
568.00   2.73176667   0.06340885
569.00   2.72766168   0.06374368
570.00   2.72354957   0.06407969
571.00   2.71943031   0.06441688
572.00   2.71530393   0.06475524
573.00   2.71117040   0.06509478
574.00   2.70702975   0.06543550
575.00   2.70288196   0.06577741
576.00   2.69872704   0.06612050
577.00   2.69456498   0.06646478
578.00   2.69039580   0.06681024
579.00   2.68621948   0.06715690
580.00   2.68203603   0.06750476
581.00   2.67784545   0.06785380
582.00   2.67364774   0.06820405
583.00   2.66944290   0.06855549
584.00   2.66523094   0.06890814
585.00   2.66101184   0.06926199
586.00   2.65678561   0.06961704
587.00   2.65255226   0.06997331
588.00   2.64831178   0.07033078
589.00   2.64406417   0.07068946
590.00   2.63980944   0.07104936
591.00   2.63554758   0.07141047
592.00   2.63127860   0.07177280
593.00   2.62700249   0.07213635
594.00   2.62271925   0.07250112
595.00   2.61842889   0.07286712
596.00   2.61413141   0.07323434
597.00   2.60982680   0.07360279
598.00   2.60551508   0.07397247
599.00   2.60119623   0.07434338
600.00   2.59687025   0.07471552
601.00   2.59253716   0.07508890
602.00   2.58819694   0.07546352
603.00   2.58384961   0.07583938
604.00   2.57949515   0.07621648
605.00   2.57513358   0.07659482
606.00   2.57076489   0.07697441
607.00   2.56638908   0.07735525
608.00   2.56200615   0.07773733
609.00   2.55761610   0.07812067
610.00   2.55321893   0.07850526
611.00   2.54881465   0.07889111
612.00   2.54440326   0.07927822
613.00   2.53998474   0.07966658
614.00   2.53555912   0.08005621
615.00   2.53112637   0.08044710
616.00   2.52668652   0.08083926
617.00   2.52223955   0.08123269
618.00   2.51778546   0.08162738
619.00   2.51332427   0.08202335
620.00   2.50885596   0.08242059
621.00   2.50438054   0.08281911
622.00   2.49989801   0.08321890
623.00   2.49540836   0.08361998
624.00   2.49091161   0.08402234
625.00   2.48640775   0.08442598
626.00   2.48189678   0.08483091
627.00   2.47737870   0.08523712
628.00   2.47285351   0.08564463
629.00   2.46832121   0.08605343
630.00   2.46378181   0.08646352
631.00   2.45923530   0.08687491
632.00   2.45468168   0.08728759
633.00   2.45012095   0.08770158
634.00   2.44555313   0.08811687
635.00   2.44097819   0.08853346
636.00   2.43639615   0.08895136
637.00   2.43180701   0.08937057
638.00   2.42721077   0.08979108
639.00   2.42260742   0.09021291
640.00   2.41799697   0.09063606
641.00   2.41337941   0.09106052
642.00   2.40875476   0.09148629
643.00   2.40412301   0.09191339
644.00   2.39948415   0.09234181
645.00   2.39483819   0.09277156
646.00   2.39018514   0.09320263
647.00   2.38552499   0.09363502
648.00   2.38085773   0.09406875
649.00   2.37618338   0.09450381
650.00   2.37150194   0.09494021
651.00   2.36681339   0.09537794
652.00   2.36211775   0.09581701
653.00   2.35741502   0.09625742
654.00   2.35270518   0.09669917
655.00   2.34798826   0.09714227
656.00   2.34326424   0.09758671
657.00   2.33853312   0.09803250
658.00   2.33379491   0.09847964
659.00   2.32904961   0.09892813
660.00   2.32429722   0.09937798
661.00   2.31953773   0.09982918
662.00   2.31477116   0.10028175
663.00   2.30999749   0.10073567
664.00   2.30521673   0.10119095
665.00   2.30042889   0.10164760
666.00   2.29563395   0.10210562
667.00   2.29083193   0.10256500
668.00   2.28602281   0.10302575
669.00   2.28120661   0.10348788
670.00   2.27638332   0.10395138
671.00   2.27155295   0.10441625
672.00   2.26671549   0.10488250
673.00   2.26187094   0.10535014
674.00   2.25701931   0.10581915
675.00   2.25216060   0.10628956
676.00   2.24729480   0.10676134
677.00   2.24242192   0.10723452
678.00   2.23754195   0.10770908
679.00   2.23265490   0.10818504
680.00   2.22776077   0.10866239
681.00   2.22285956   0.10914114
682.00   2.21795127   0.10962128
683.00   2.21303590   0.11010283
684.00   2.20811344   0.11058578
685.00   2.20318391   0.11107013
686.00   2.19824730   0.11155589
687.00   2.19330362   0.11204305
688.00   2.18835285   0.11253163
689.00   2.18339501   0.11302162
690.00   2.17843009   0.11351302
691.00   2.17345809   0.11400584
692.00   2.16847902   0.11450008
693.00   2.16349288   0.11499574
694.00   2.15849966   0.11549282
695.00   2.15349936   0.11599132
696.00   2.14849200   0.11649125
697.00   2.14347756   0.11699261
698.00   2.13845604   0.11749539
699.00   2.13342746   0.11799961
700.00   2.12839181   0.11850527
701.00   2.12334908   0.11901236
702.00   2.11829929   0.11952088
703.00   2.11324242   0.12003085
704.00   2.10817849   0.12054226
705.00   2.10310749   0.12105512
706.00   2.09802942   0.12156942
707.00   2.09294428   0.12208516
708.00   2.08785207   0.12260236
709.00   2.08275280   0.12312101
710.00   2.07764647   0.12364112
711.00   2.07253307   0.12416268
712.00   2.06741260   0.12468569
713.00   2.06228507   0.12521017
714.00   2.05715048   0.12573611
715.00   2.05200882   0.12626351
716.00   2.04686011   0.12679238
717.00   2.04170433   0.12732272
718.00   2.03654148   0.12785453
719.00   2.03137158   0.12838780
720.00   2.02619462   0.12892256
721.00   2.02101060   0.12945879
722.00   2.01581952   0.12999649
723.00   2.01062138   0.13053568
724.00   2.00541619   0.13107635
725.00   2.00020393   0.13161850
726.00   1.99498462   0.13216213
727.00   1.98975825   0.13270726
728.00   1.98452483   0.13325387
729.00   1.97928435   0.13380198
730.00   1.97403682   0.13435158
731.00   1.96878224   0.13490267
732.00   1.96352060   0.13545527
733.00   1.95825191   0.13600936
734.00   1.95297616   0.13656495
735.00   1.94769337   0.13712205
736.00   1.94240352   0.13768066
737.00   1.93710662   0.13824077
738.00   1.93180268   0.13880239
739.00   1.92649168   0.13936552
740.00   1.92117364   0.13993016
741.00   1.91584854   0.14049632
742.00   1.91051640   0.14106400
743.00   1.90517721   0.14163320
744.00   1.89983098   0.14220392
745.00   1.89447770   0.14277616
746.00   1.88911737   0.14334993
747.00   1.88375000   0.14392522
748.00   1.87837559   0.14450205
749.00   1.87299413   0.14508040
750.00   1.86760563   0.14566029
751.00   1.86221009   0.14624172
752.00   1.85680750   0.14682468
753.00   1.85139787   0.14740918
754.00   1.84598121   0.14799522
755.00   1.84055750   0.14858281
756.00   1.83512675   0.14917194
757.00   1.82968897   0.14976261
758.00   1.82424414   0.15035484
759.00   1.81879228   0.15094862
760.00   1.81333338   0.15154395
761.00   1.80786745   0.15214083
762.00   1.80239448   0.15273927
763.00   1.79691447   0.15333928
764.00   1.79142743   0.15394084
765.00   1.78593335   0.15454396
766.00   1.78043224   0.15514865
767.00   1.77492410   0.15575491
768.00   1.76940893   0.15636273
769.00   1.76388672   0.15697213
770.00   1.75835748   0.15758310
771.00   1.75282122   0.15819564
772.00   1.74727792   0.15880976
773.00   1.74172759   0.15942546
774.00   1.73617023   0.16004274
775.00   1.73060585   0.16066161
776.00   1.72503444   0.16128205
777.00   1.71945600   0.16190409
778.00   1.71387053   0.16252771
779.00   1.70827804   0.16315292
780.00   1.70267852   0.16377972
781.00   1.69707198   0.16440812
782.00   1.69145842   0.16503812
783.00   1.68583783   0.16566971
784.00   1.68021021   0.16630291
785.00   1.67457558   0.16693771
786.00   1.66893393   0.16757411
787.00   1.66328525   0.16821211
788.00   1.65762955   0.16885173
789.00   1.65196684   0.16949295
790.00   1.64629710   0.17013579
791.00   1.64062035   0.17078024
792.00   1.63493657   0.17142631
793.00   1.62924578   0.17207400
794.00   1.62354798   0.17272330
795.00   1.61784315   0.17337423
796.00   1.61213132   0.17402678
797.00   1.60641246   0.17468096
798.00   1.60068660   0.17533677
799.00   1.59495372   0.17599420
800.00   1.58921382   0.17665327
801.00   1.58346692   0.17731397
802.00   1.57771300   0.17797631
803.00   1.57195207   0.17864028
804.00   1.56618413   0.17930590
805.00   1.56040918   0.17997315
806.00   1.55462722   0.18064205
807.00   1.54883825   0.18131260
808.00   1.54304228   0.18198479
809.00   1.53723930   0.18265863
810.00   1.53142931   0.18333412
811.00   1.52561231   0.18401127
812.00   1.51978831   0.18469007
813.00   1.51395730   0.18537053
814.00   1.50811929   0.18605265
815.00   1.50227428   0.18673643
816.00   1.49642226   0.18742187
817.00   1.49056324   0.18810898
818.00   1.48469722   0.18879775
819.00   1.47882420   0.18948820
820.00   1.47294417   0.19018031
821.00   1.46705715   0.19087410
822.00   1.46116313   0.19156956
823.00   1.45526211   0.19226670
824.00   1.44935409   0.19296552
825.00   1.44343907   0.19366602
826.00   1.43751706   0.19436820
827.00   1.43158805   0.19507207
828.00   1.42565205   0.19577762
829.00   1.41970905   0.19648486
830.00   1.41375905   0.19719379
831.00   1.40780207   0.19790442
832.00   1.40183809   0.19861674
833.00   1.39586711   0.19933075
834.00   1.38988915   0.20004647
835.00   1.38390420   0.20076388
836.00   1.37791225   0.20148300
837.00   1.37191332   0.20220382
838.00   1.36590739   0.20292635
839.00   1.35989448   0.20365058
840.00   1.35387458   0.20437653
841.00   1.34784769   0.20510418
842.00   1.34181382   0.20583355
843.00   1.33577296   0.20656464
844.00   1.32972512   0.20729745
845.00   1.32367029   0.20803197
846.00   1.31760848   0.20876822
847.00   1.31153968   0.20950619
848.00   1.30546390   0.21024588
849.00   1.29938114   0.21098731
850.00   1.29329140   0.21173046
851.00   1.28719468   0.21247535
852.00   1.28109098   0.21322196
853.00   1.27498030   0.21397032
854.00   1.26886264   0.21472041
855.00   1.26273800   0.21547224
856.00   1.25660638   0.21622581
857.00   1.25046779   0.21698113
858.00   1.24432222   0.21773819
859.00   1.23816968   0.21849699
860.00   1.23201016   0.21925755
861.00   1.22584367   0.22001986
862.00   1.21967021   0.22078392
863.00   1.21348977   0.22154973
864.00   1.20730236   0.22231730
865.00   1.20110798   0.22308663
866.00   1.19490663   0.22385773
867.00   1.18869831   0.22463058
868.00   1.18248302   0.22540520
869.00   1.17626076   0.22618158
870.00   1.17003153   0.22695974
871.00   1.16379534   0.22773966
872.00   1.15755217   0.22852136
873.00   1.15130205   0.22930483
874.00   1.14504495   0.23009007
875.00   1.13878090   0.23087710
876.00   1.13250988   0.23166590
877.00   1.12623189   0.23245649
878.00   1.11994694   0.23324886
879.00   1.11365503   0.23404302
880.00   1.10735616   0.23483896
881.00   1.10105033   0.23563670
882.00   1.09473754   0.23643623
883.00   1.08841779   0.23723755
884.00   1.08209108   0.23804066
885.00   1.07575742   0.23884558
886.00   1.06941679   0.23965229
887.00   1.06306921   0.24046080
888.00   1.05671467   0.24127112
889.00   1.05035318   0.24208324
890.00   1.04398474   0.24289718
891.00   1.03760934   0.24371292
892.00   1.03122698   0.24453047
893.00   1.02483768   0.24534983
894.00   1.01844142   0.24617101
895.00   1.01203821   0.24699400
896.00   1.00562805   0.24781882
897.00   0.99921095   0.24864545
898.00   0.99278689   0.24947391
899.00   0.98635588   0.25030420
900.00   0.97991793   0.25113631
901.00   0.97347303   0.25197024
902.00   0.96702118   0.25280601
903.00   0.96056239   0.25364361
904.00   0.95409665   0.25448305
905.00   0.94762397   0.25532432
906.00   0.94114435   0.25616743
907.00   0.93465778   0.25701238
908.00   0.92816427   0.25785917
909.00   0.92166382   0.25870781
910.00   0.91515643   0.25955829
911.00   0.90864210   0.26041062
912.00   0.90212082   0.26126480
913.00   0.89559261   0.26212083
914.00   0.88905747   0.26297871
915.00   0.88251538   0.26383845
916.00   0.87596636   0.26470005
917.00   0.86941040   0.26556351
918.00   0.86284751   0.26642883
919.00   0.85627769   0.26729601
920.00   0.84970093   0.26816506
921.00   0.84311723   0.26903597
922.00   0.83652661   0.26990875
923.00   0.82992905   0.27078341
924.00   0.82332456   0.27165993
925.00   0.81671314   0.27253833
926.00   0.81009480   0.27341861
927.00   0.80346952   0.27430077
928.00   0.79683732   0.27518481
929.00   0.79019818   0.27607073
930.00   0.78355213   0.27695853
931.00   0.77689914   0.27784822
932.00   0.77023923   0.27873980
933.00   0.76357240   0.27963327
934.00   0.75689864   0.28052863
935.00   0.75021796   0.28142589
936.00   0.74353036   0.28232504
937.00   0.73683583   0.28322609
938.00   0.73013439   0.28412904
939.00   0.72342602   0.28503389
940.00   0.71671073   0.28594064
941.00   0.70998853   0.28684930
942.00   0.70325941   0.28775987
943.00   0.69652337   0.28867235
944.00   0.68978041   0.28958674
945.00   0.68303054   0.29050304
946.00   0.67627375   0.29142126
947.00   0.66951005   0.29234139
948.00   0.66273944   0.29326344
949.00   0.65596191   0.29418742
950.00   0.64917747   0.29511331
951.00   0.64238612   0.29604113
952.00   0.63558785   0.29697088
953.00   0.62878268   0.29790256
954.00   0.62197060   0.29883616
955.00   0.61515161   0.29977170
956.00   0.60832571   0.30070918
957.00   0.60149290   0.30164859
958.00   0.59465319   0.30258993
959.00   0.58780657   0.30353322
960.00   0.58095305   0.30447845
961.00   0.57409262   0.30542563
962.00   0.56722529   0.30637475
963.00   0.56035106   0.30732581
964.00   0.55346992   0.30827883
965.00   0.54658188   0.30923380
966.00   0.53968695   0.31019072
967.00   0.53278511   0.31114960
968.00   0.52587637   0.31211043
969.00   0.51896074   0.31307322
970.00   0.51203820   0.31403798
971.00   0.50510877   0.31500470
972.00   0.49817245   0.31597338
973.00   0.49122923   0.31694403
974.00   0.48427911   0.31791664
975.00   0.47732210   0.31889123
976.00   0.47035820   0.31986779
977.00   0.46338740   0.32084633
978.00   0.45640972   0.32182684
979.00   0.44942514   0.32280933
980.00   0.44243367   0.32379380
981.00   0.43543531   0.32478025
982.00   0.42843007   0.32576869
983.00   0.42141793   0.32675911
984.00   0.41439891   0.32775152
985.00   0.40737300   0.32874592
986.00   0.40034021   0.32974231
987.00   0.39330053   0.33074069
988.00   0.38625397   0.33174107
989.00   0.37920052   0.33274345
990.00   0.37214019   0.33374783
991.00   0.36507298   0.33475420
992.00   0.35799889   0.33576258
993.00   0.35091792   0.33677297
994.00   0.34383007   0.33778536
995.00   0.33673534   0.33879976
996.00   0.32963373   0.33981617
997.00   0.32252524   0.34083460
998.00   0.31540988   0.34185503
999.00   0.30828764   0.34287749
1000.00   0.30115852   0.34390196
1001.00   0.29402253   0.34492845
1002.00   0.28687967   0.34595697
1003.00   0.27972994   0.34698750
1004.00   0.27257333   0.34802007
1005.00   0.26540985   0.34905466
1006.00   0.25823950   0.35009128
1007.00   0.25106228   0.35112993
1008.00   0.24387819   0.35217062
1009.00   0.23668724   0.35321334
1010.00   0.22948941   0.35425810
1011.00   0.22228472   0.35530490
1012.00   0.21507316   0.35635374
1013.00   0.20785474   0.35740462
1014.00   0.20062946   0.35845754
1015.00   0.19339731   0.35951251
1016.00   0.18615829   0.36056954
1017.00   0.17891242   0.36162861
1018.00   0.17165968   0.36268973
1019.00   0.16440008   0.36375291
1020.00   0.15713363   0.36481814
1021.00   0.14986031   0.36588543
1022.00   0.14258014   0.36695479
1023.00   0.13529311   0.36802620
1024.00   0.12799922   0.36909968
1025.00   0.12069847   0.37017522
1026.00   0.11339087   0.37125283
1027.00   0.10607642   0.37233251
1028.00   0.09875511   0.37341426
1029.00   0.09142695   0.37449808
1030.00   0.08409194   0.37558398
1031.00   0.07675008   0.37667196
1032.00   0.06940136   0.37776201
1033.00   0.06204580   0.37885415
1034.00   0.05468339   0.37994836
1035.00   0.04731413   0.38104466
1036.00   0.03993802   0.38214305
1037.00   0.03255506   0.38324353
1038.00   0.02516526   0.38434609
1039.00   0.01776862   0.38545075
1040.00   0.01036513   0.38655750
1041.00   0.00295479   0.38766635
1042.00  -0.00446238   0.38877730
1043.00  -0.01188640   0.38989034
1044.00  -0.01931726   0.39100549
1045.00  -0.02675496   0.39212274
1046.00  -0.03419949   0.39324209
1047.00  -0.04165087   0.39436355
1048.00  -0.04910909   0.39548712
1049.00  -0.05657414   0.39661280
1050.00  -0.06404603   0.39774060
1051.00  -0.07152475   0.39887051
1052.00  -0.07901031   0.40000253
1053.00  -0.08650270   0.40113667
1054.00  -0.09400193   0.40227294
1055.00  -0.10150798   0.40341132
1056.00  -0.10902087   0.40455183
1057.00  -0.11654059   0.40569446
1058.00  -0.12406714   0.40683923
1059.00  -0.13160052   0.40798612
1060.00  -0.13914073   0.40913514
1061.00  -0.14668776   0.41028630
1062.00  -0.15424162   0.41143959
1063.00  -0.16180231   0.41259502
1064.00  -0.16936983   0.41375259
1065.00  -0.17694416   0.41491230
1066.00  -0.18452532   0.41607415
1067.00  -0.19211331   0.41723814
1068.00  -0.19970811   0.41840428
1069.00  -0.20730974   0.41957258
1070.00  -0.21491818   0.42074302
1071.00  -0.22253345   0.42191561
1072.00  -0.23015553   0.42309036
1073.00  -0.23778444   0.42426726
1074.00  -0.24542015   0.42544632
1075.00  -0.25306269   0.42662754
1076.00  -0.26071204   0.42781092
1077.00  -0.26836821   0.42899646
1078.00  -0.27603119   0.43018417
1079.00  -0.28370098   0.43137405
1080.00  -0.29137758   0.43256609
1081.00  -0.29906100   0.43376031
1082.00  -0.30675123   0.43495670
1083.00  -0.31444826   0.43615526
1084.00  -0.32215211   0.43735600
1085.00  -0.32986276   0.43855892
1086.00  -0.33758022   0.43976402
1087.00  -0.34530449   0.44097130
1088.00  -0.35303556   0.44218076
1089.00  -0.36077344   0.44339241
1090.00  -0.36851812   0.44460625
1091.00  -0.37626960   0.44582227
1092.00  -0.38402789   0.44704049
1093.00  -0.39179298   0.44826090
1094.00  -0.39956487   0.44948351
1095.00  -0.40734356   0.45070831
1096.00  -0.41512904   0.45193531
1097.00  -0.42292133   0.45316451
1098.00  -0.43072041   0.45439592
1099.00  -0.43852629   0.45562953
1100.00  -0.44633897   0.45686534
1101.00  -0.45415844   0.45810336
1102.00  -0.46198470   0.45934360
1103.00  -0.46981776   0.46058604
1104.00  -0.47765761   0.46183070
1105.00  -0.48550426   0.46307757
1106.00  -0.49335769   0.46432666
1107.00  -0.50121791   0.46557797
1108.00  -0.50908492   0.46683151
1109.00  -0.51695872   0.46808726
1110.00  -0.52483931   0.46934524
1111.00  -0.53272669   0.47060544
1112.00  -0.54062085   0.47186788
1113.00  -0.54852179   0.47313254
1114.00  -0.55642952   0.47439944
1115.00  -0.56434403   0.47566857
1116.00  -0.57226533   0.47693994
1117.00  -0.58019340   0.47821354
1118.00  -0.58812826   0.47948938
1119.00  -0.59606990   0.48076747
1120.00  -0.60401831   0.48204780
1121.00  -0.61197351   0.48333037
1122.00  -0.61993548   0.48461519
1123.00  -0.62790423   0.48590226
1124.00  -0.63587975   0.48719158
1125.00  -0.64386205   0.48848316
1126.00  -0.65185112   0.48977698
1127.00  -0.65984697   0.49107307
1128.00  -0.66784958   0.49237141
1129.00  -0.67585897   0.49367201
1130.00  -0.68387513   0.49497488
1131.00  -0.69189806   0.49628000
1132.00  -0.69992776   0.49758740
1133.00  -0.70796423   0.49889706
1134.00  -0.71600746   0.50020899
1135.00  -0.72405746   0.50152319
1136.00  -0.73211423   0.50283966
1137.00  -0.74017776   0.50415841
1138.00  -0.74824805   0.50547944
1139.00  -0.75632511   0.50680274
1140.00  -0.76440893   0.50812832
1141.00  -0.77249951   0.50945619
1142.00  -0.78059685   0.51078634
1143.00  -0.78870095   0.51211878
1144.00  -0.79681181   0.51345350
1145.00  -0.80492943   0.51479051
1146.00  -0.81305380   0.51612982
1147.00  -0.82118493   0.51747141
1148.00  -0.82932281   0.51881531
1149.00  -0.83746745   0.52016150
1150.00  -0.84561885   0.52150999
1151.00  -0.85377699   0.52286077
1152.00  -0.86194189   0.52421387
1153.00  -0.87011354   0.52556926
1154.00  -0.87829194   0.52692696
1155.00  -0.88647708   0.52828697
1156.00  -0.89466898   0.52964929
1157.00  -0.90286762   0.53101392
1158.00  -0.91107301   0.53238087
1159.00  -0.91928515   0.53375013
1160.00  -0.92750403   0.53512171
1161.00  -0.93572965   0.53649560
1162.00  -0.94396202   0.53787182
1163.00  -0.95220113   0.53925036
1164.00  -0.96044698   0.54063122
1165.00  -0.96869958   0.54201441
1166.00  -0.97695891   0.54339993
1167.00  -0.98522498   0.54478778
1168.00  -0.99349779   0.54617796
1169.00  -1.00177733   0.54757048
1170.00  -1.01006361   0.54896533
1171.00  -1.01835663   0.55036251
1172.00  -1.02665638   0.55176204
1173.00  -1.03496286   0.55316391
1174.00  -1.04327608   0.55456812
1175.00  -1.05159603   0.55597467
1176.00  -1.05992271   0.55738357
1177.00  -1.06825612   0.55879482
1178.00  -1.07659626   0.56020842
1179.00  -1.08494313   0.56162437
1180.00  -1.09329672   0.56304268
1181.00  -1.10165704   0.56446334
1182.00  -1.11002409   0.56588636
1183.00  -1.11839786   0.56731174
1184.00  -1.12677836   0.56873947
1185.00  -1.13516558   0.57016958
1186.00  -1.14355952   0.57160204
1187.00  -1.15196018   0.57303688
1188.00  -1.16036756   0.57447408
1189.00  -1.16878166   0.57591365
1190.00  -1.17720248   0.57735559
1191.00  -1.18563002   0.57879991
1192.00  -1.19406427   0.58024661
1193.00  -1.20250524   0.58169568
1194.00  -1.21095293   0.58314713
1195.00  -1.21940733   0.58460096
1196.00  -1.22786844   0.58605718
1197.00  -1.23633626   0.58751578
1198.00  -1.24481080   0.58897676
1199.00  -1.25329205   0.59044014
1200.00  -1.26178000   0.59190590
1201.00  -1.27027467   0.59337406
1202.00  -1.27877604   0.59484461
1203.00  -1.28728412   0.59631756
1204.00  -1.29579891   0.59779290
1205.00  -1.30432040   0.59927065
1206.00  -1.31284859   0.60075079
1207.00  -1.32138349   0.60223334
1208.00  -1.32992509   0.60371830
1209.00  -1.33847340   0.60520566
1210.00  -1.34702840   0.60669542
1211.00  -1.35559010   0.60818760
1212.00  -1.36415851   0.60968219
1213.00  -1.37273361   0.61117920
1214.00  -1.38131540   0.61267862
1215.00  -1.38990390   0.61418046
1216.00  -1.39849908   0.61568472
1217.00  -1.40710097   0.61719139
1218.00  -1.41570954   0.61870050
1219.00  -1.42432481   0.62021202
1220.00  -1.43294677   0.62172598
1221.00  -1.44157542   0.62324236
1222.00  -1.45021077   0.62476117
1223.00  -1.45885279   0.62628242
1224.00  -1.46750151   0.62780609
1225.00  -1.47615692   0.62933221
1226.00  -1.48481901   0.63086076
1227.00  -1.49348778   0.63239175
1228.00  -1.50216325   0.63392518
1229.00  -1.51084539   0.63546106
1230.00  -1.51953422   0.63699938
1231.00  -1.52822972   0.63854014
1232.00  -1.53693191   0.64008336
1233.00  -1.54564078   0.64162902
1234.00  -1.55435633   0.64317714
1235.00  -1.56307856   0.64472771
1236.00  -1.57180746   0.64628074
1237.00  -1.58054304   0.64783622
1238.00  -1.58928529   0.64939416
1239.00  -1.59803422   0.65095457
1240.00  -1.60678982   0.65251743
1241.00  -1.61555209   0.65408277
1242.00  -1.62432104   0.65565056
1243.00  -1.63309666   0.65722083
1244.00  -1.64187894   0.65879357
1245.00  -1.65066790   0.66036877
1246.00  -1.65946352   0.66194646
1247.00  -1.66826581   0.66352661
1248.00  -1.67707476   0.66510925
1249.00  -1.68589038   0.66669436
1250.00  -1.69471267   0.66828195
1251.00  -1.70354161   0.66987203
1252.00  -1.71237722   0.67146459
1253.00  -1.72121950   0.67305964
1254.00  -1.73006843   0.67465718
1255.00  -1.73892402   0.67625720
1256.00  -1.74778627   0.67785972
1257.00  -1.75665518   0.67946473
1258.00  -1.76553074   0.68107223
1259.00  -1.77441296   0.68268224
1260.00  -1.78330183   0.68429474
1261.00  -1.79219736   0.68590974
1262.00  -1.80109954   0.68752724
1263.00  -1.81000838   0.68914725
1264.00  -1.81892386   0.69076977
1265.00  -1.82784600   0.69239479
1266.00  -1.83677478   0.69402232
1267.00  -1.84571021   0.69565237
1268.00  -1.85465229   0.69728492
1269.00  -1.86360102   0.69892000
1270.00  -1.87255639   0.70055758
1271.00  -1.88151841   0.70219769
1272.00  -1.89048707   0.70384032
1273.00  -1.89946237   0.70548547
1274.00  -1.90844431   0.70713314
1275.00  -1.91743290   0.70878334
1276.00  -1.92642812   0.71043607
1277.00  -1.93542999   0.71209132
1278.00  -1.94443849   0.71374911
1279.00  -1.95345363   0.71540943
1280.00  -1.96247540   0.71707228
1281.00  -1.97150381   0.71873768
1282.00  -1.98053886   0.72040560
1283.00  -1.98958053   0.72207607
1284.00  -1.99862884   0.72374908
1285.00  -2.00768378   0.72542464
1286.00  -2.01674535   0.72710274
1287.00  -2.02581356   0.72878339
1288.00  -2.03488838   0.73046658
1289.00  -2.04396984   0.73215233
1290.00  -2.05305792   0.73384063
1291.00  -2.06215263   0.73553148
1292.00  -2.07125397   0.73722489
1293.00  -2.08036192   0.73892086
1294.00  -2.08947650   0.74061939
1295.00  -2.09859771   0.74232047
1296.00  -2.10772553   0.74402413
1297.00  -2.11685997   0.74573034
1298.00  -2.12600103   0.74743913
1299.00  -2.13514871   0.74915048
1300.00  -2.14430301   0.75086440
1301.00  -2.15346392   0.75258089
1302.00  -2.16263145   0.75429996
1303.00  -2.17180559   0.75602161
1304.00  -2.18098635   0.75774583
1305.00  -2.19017371   0.75947263
1306.00  -2.19936769   0.76120201
1307.00  -2.20856828   0.76293397
1308.00  -2.21777548   0.76466852
1309.00  -2.22698929   0.76640566
1310.00  -2.23620970   0.76814538
1311.00  -2.24543672   0.76988769
1312.00  -2.25467035   0.77163260
1313.00  -2.26391058   0.77338009
1314.00  -2.27315741   0.77513019
1315.00  -2.28241085   0.77688288
1316.00  -2.29167089   0.77863817
1317.00  -2.30093753   0.78039605
1318.00  -2.31021077   0.78215655
1319.00  -2.31949060   0.78391964
1320.00  -2.32877704   0.78568534
1321.00  -2.33807007   0.78745365
1322.00  -2.34736970   0.78922457
1323.00  -2.35667592   0.79099810
1324.00  -2.36598874   0.79277424
1325.00  -2.37530815   0.79455299
1326.00  -2.38463415   0.79633437
1327.00  -2.39396674   0.79811836
1328.00  -2.40330593   0.79990497
1329.00  -2.41265170   0.80169420
1330.00  -2.42200406   0.80348606
1331.00  -2.43136300   0.80528054
1332.00  -2.44072854   0.80707765
1333.00  -2.45010065   0.80887738
1334.00  -2.45947936   0.81067975
1335.00  -2.46886464   0.81248475
1336.00  -2.47825651   0.81429238
1337.00  -2.48765496   0.81610265
1338.00  -2.49705999   0.81791556
1339.00  -2.50647159   0.81973111
1340.00  -2.51588978   0.82154929
1341.00  -2.52531454   0.82337012
1342.00  -2.53474588   0.82519360
1343.00  -2.54418380   0.82701972
1344.00  -2.55362829   0.82884849
1345.00  -2.56307935   0.83067991
1346.00  -2.57253698   0.83251398
1347.00  -2.58200119   0.83435070
1348.00  -2.59147197   0.83619008
1349.00  -2.60094931   0.83803212
1350.00  -2.61043323   0.83987681
1351.00  -2.61992371   0.84172417
1352.00  -2.62942076   0.84357418
1353.00  -2.63892437   0.84542687
1354.00  -2.64843455   0.84728221
1355.00  -2.65795129   0.84914023
1356.00  -2.66747459   0.85100091
1357.00  -2.67700446   0.85286426
1358.00  -2.68654088   0.85473029
1359.00  -2.69608387   0.85659899
1360.00  -2.70563341   0.85847037
1361.00  -2.71518951   0.86034443
1362.00  -2.72475217   0.86222116
1363.00  -2.73432139   0.86410058
1364.00  -2.74389715   0.86598268
1365.00  -2.75347947   0.86786746
1366.00  -2.76306835   0.86975493
1367.00  -2.77266377   0.87164509
1368.00  -2.78226575   0.87353794
1369.00  -2.79187427   0.87543349
1370.00  -2.80148935   0.87733172
1371.00  -2.81111097   0.87923265
1372.00  -2.82073913   0.88113628
1373.00  -2.83037385   0.88304261
1374.00  -2.84001511   0.88495164
1375.00  -2.84966291   0.88686337
1376.00  -2.85931725   0.88877780
1377.00  -2.86897813   0.89069494
1378.00  -2.87864556   0.89261479
1379.00  -2.88831953   0.89453735
1380.00  -2.89800003   0.89646261
1381.00  -2.90768707   0.89839059
1382.00  -2.91738065   0.90032129
1383.00  -2.92708076   0.90225470
1384.00  -2.93678741   0.90419083
1385.00  -2.94650059   0.90612968
1386.00  -2.95622030   0.90807125
1387.00  -2.96594654   0.91001555
1388.00  -2.97567932   0.91196257
1389.00  -2.98541862   0.91391231
1390.00  -2.99516445   0.91586479
1391.00  -3.00491681   0.91781999
1392.00  -3.01467570   0.91977793
1393.00  -3.02444111   0.92173860
1394.00  -3.03421305   0.92370201
1395.00  -3.04399151   0.92566815
1396.00  -3.05377649   0.92763704
1397.00  -3.06356799   0.92960866
1398.00  -3.07336601   0.93158302
1399.00  -3.08317055   0.93356013
1400.00  -3.09298162   0.93553999
1401.00  -3.10279919   0.93752259
1402.00  -3.11262329   0.93950794
1403.00  -3.12245389   0.94149605
1404.00  -3.13229102   0.94348690
1405.00  -3.14213465   0.94548051
1406.00  -3.15198480   0.94747688
1407.00  -3.16184146   0.94947601
1408.00  -3.17170463   0.95147789
1409.00  -3.18157431   0.95348254
1410.00  -3.19145049   0.95548995
1411.00  -3.20133319   0.95750012
1412.00  -3.21122238   0.95951306
1413.00  -3.22111809   0.96152877
1414.00  -3.23102030   0.96354725
1415.00  -3.24092901   0.96556850
1416.00  -3.25084422   0.96759252
1417.00  -3.26076593   0.96961932
1418.00  -3.27069415   0.97164890
1419.00  -3.28062886   0.97368126
1420.00  -3.29057007   0.97571639
1421.00  -3.30051777   0.97775431
1422.00  -3.31047197   0.97979501
1423.00  -3.32043267   0.98183850
1424.00  -3.33039986   0.98388477
1425.00  -3.34037354   0.98593384
1426.00  -3.35035372   0.98798569
1427.00  -3.36034038   0.99004034
1428.00  -3.37033353   0.99209778
1429.00  -3.38033318   0.99415801
1430.00  -3.39033931   0.99622105
1431.00  -3.40035192   0.99828688
1432.00  -3.41037102   1.00035552
1433.00  -3.42039661   1.00242695
1434.00  -3.43042868   1.00450119
1435.00  -3.44046723   1.00657824
1436.00  -3.45051226   1.00865810
1437.00  -3.46056377   1.01074076
1438.00  -3.47062176   1.01282624
1439.00  -3.48068623   1.01491453
1440.00  -3.49075718   1.01700564
1441.00  -3.50083460   1.01909956
1442.00  -3.51091850   1.02119630
1443.00  -3.52100887   1.02329586
1444.00  -3.53110571   1.02539824
1445.00  -3.54120903   1.02750344
1446.00  -3.55131881   1.02961147
1447.00  -3.56143507   1.03172233
1448.00  -3.57155779   1.03383601
1449.00  -3.58168699   1.03595253
1450.00  -3.59182264   1.03807187
1451.00  -3.60196477   1.04019405
1452.00  -3.61211336   1.04231907
1453.00  -3.62226841   1.04444692
1454.00  -3.63242992   1.04657761
1455.00  -3.64259790   1.04871114
1456.00  -3.65277233   1.05084752
1457.00  -3.66295323   1.05298673
1458.00  -3.67314058   1.05512880
1459.00  -3.68333439   1.05727371
1460.00  -3.69353466   1.05942147
1461.00  -3.70374138   1.06157208
1462.00  -3.71395455   1.06372554
1463.00  -3.72417418   1.06588186
1464.00  -3.73440026   1.06804103
1465.00  -3.74463279   1.07020306
1466.00  -3.75487177   1.07236795
1467.00  -3.76511720   1.07453570
1468.00  -3.77536907   1.07670631
1469.00  -3.78562739   1.07887978
1470.00  -3.79589216   1.08105613
1471.00  -3.80616337   1.08323534
1472.00  -3.81644103   1.08541742
1473.00  -3.82672513   1.08760237
1474.00  -3.83701567   1.08979019
1475.00  -3.84731265   1.09198089
1476.00  -3.85761606   1.09417446
1477.00  -3.86792592   1.09637091
1478.00  -3.87824221   1.09857024
1479.00  -3.88856494   1.10077245
1480.00  -3.89889411   1.10297755
1481.00  -3.90922970   1.10518553
1482.00  -3.91957173   1.10739640
1483.00  -3.92992019   1.10961015
1484.00  -3.94027509   1.11182679
1485.00  -3.95063641   1.11404633
1486.00  -3.96100416   1.11626876
1487.00  -3.97137834   1.11849408
1488.00  -3.98175894   1.12072230
1489.00  -3.99214597   1.12295342
1490.00  -4.00253942   1.12518743
1491.00  -4.01293930   1.12742435
1492.00  -4.02334560   1.12966417
1493.00  -4.03375831   1.13190690
1494.00  -4.04417745   1.13415254
1495.00  -4.05460301   1.13640108
1496.00  -4.06503499   1.13865253
1497.00  -4.07547338   1.14090689
1498.00  -4.08591818   1.14316417
1499.00  -4.09636941   1.14542436
1500.00  -4.10682704   1.14768747
1501.00  -4.11729109   1.14995350
1502.00  -4.12776155   1.15222244
1503.00  -4.13823842   1.15449431
1504.00  -4.14872169   1.15676910
1505.00  -4.15921138   1.15904682
1506.00  -4.16970747   1.16132747
1507.00  -4.18020997   1.16361104
1508.00  -4.19071887   1.16589754
1509.00  -4.20123418   1.16818698
1510.00  -4.21175589   1.17047934
1511.00  -4.22228400   1.17277465
1512.00  -4.23281851   1.17507289
1513.00  -4.24335942   1.17737407
1514.00  -4.25390673   1.17967819
1515.00  -4.26446044   1.18198525
1516.00  -4.27502054   1.18429525
1517.00  -4.28558704   1.18660820
1518.00  -4.29615993   1.18892410
1519.00  -4.30673921   1.19124294
1520.00  -4.31732489   1.19356474
1521.00  -4.32791695   1.19588949
1522.00  -4.33851541   1.19821719
1523.00  -4.34912025   1.20054784
1524.00  -4.35973148   1.20288146
1525.00  -4.37034910   1.20521803
1526.00  -4.38097310   1.20755756
1527.00  -4.39160349   1.20990006
1528.00  -4.40224026   1.21224551
1529.00  -4.41288341   1.21459394
1530.00  -4.42353294   1.21694533
1531.00  -4.43418886   1.21929969
1532.00  -4.44485115   1.22165702
1533.00  -4.45551981   1.22401732
1534.00  -4.46619486   1.22638059
1535.00  -4.47687628   1.22874684
1536.00  -4.48756407   1.23111607
1537.00  -4.49825824   1.23348828
1538.00  -4.50895878   1.23586346
1539.00  -4.51966569   1.23824163
1540.00  -4.53037897   1.24062278
1541.00  -4.54109862   1.24300692
1542.00  -4.55182464   1.24539405
1543.00  -4.56255702   1.24778416
1544.00  -4.57329577   1.25017726
1545.00  -4.58404088   1.25257336
1546.00  -4.59479236   1.25497245
1547.00  -4.60555019   1.25737453
1548.00  -4.61631439   1.25977961
1549.00  -4.62708495   1.26218769
1550.00  -4.63786187   1.26459877
1551.00  -4.64864514   1.26701286
1552.00  -4.65943478   1.26942994
1553.00  -4.67023076   1.27185003
1554.00  -4.68103310   1.27427313
1555.00  -4.69184180   1.27669924
1556.00  -4.70265685   1.27912835
1557.00  -4.71347824   1.28156048
1558.00  -4.72430599   1.28399563
1559.00  -4.73514009   1.28643378
1560.00  -4.74598053   1.28887496
1561.00  -4.75682733   1.29131915
1562.00  -4.76768046   1.29376636
1563.00  -4.77853994   1.29621660
1564.00  -4.78940577   1.29866986
1565.00  -4.80027793   1.30112614
1566.00  -4.81115644   1.30358545
1567.00  -4.82204129   1.30604779
1568.00  -4.83293247   1.30851316
1569.00  -4.84383000   1.31098156
1570.00  -4.85473386   1.31345299
1571.00  -4.86564405   1.31592746
1572.00  -4.87656058   1.31840497
1573.00  -4.88748345   1.32088551
1574.00  -4.89841264   1.32336910
1575.00  -4.90934817   1.32585572
1576.00  -4.92029003   1.32834539
1577.00  -4.93123821   1.33083810
1578.00  -4.94219272   1.33333386
1579.00  -4.95315356   1.33583267
1580.00  -4.96412073   1.33833453
1581.00  -4.97509422   1.34083944
1582.00  -4.98607403   1.34334740
1583.00  -4.99706016   1.34585842
1584.00  -5.00805262   1.34837249
1585.00  -5.01905139   1.35088963
1586.00  -5.03005648   1.35340982
1587.00  -5.04106789   1.35593307
1588.00  -5.05208562   1.35845939
1589.00  -5.06310966   1.36098877
1590.00  -5.07414002   1.36352121
1591.00  -5.08517669   1.36605673
1592.00  -5.09621967   1.36859531
1593.00  -5.10726896   1.37113697
1594.00  -5.11832456   1.37368170
1595.00  -5.12938647   1.37622950
1596.00  -5.14045469   1.37878038
1597.00  -5.15152921   1.38133434
1598.00  -5.16261004   1.38389137
1599.00  -5.17369718   1.38645149
1600.00  -5.18479061   1.38901469
1601.00  -5.19589035   1.39158097
1602.00  -5.20699638   1.39415034
1603.00  -5.21810872   1.39672280
1604.00  -5.22922736   1.39929835
1605.00  -5.24035229   1.40187698
1606.00  -5.25148352   1.40445871
1607.00  -5.26262104   1.40704354
1608.00  -5.27376486   1.40963146
1609.00  -5.28491497   1.41222247
1610.00  -5.29607137   1.41481659
1611.00  -5.30723406   1.41741380
1612.00  -5.31840304   1.42001412
1613.00  -5.32957831   1.42261754
1614.00  -5.34075986   1.42522407
1615.00  -5.35194770   1.42783371
1616.00  -5.36314183   1.43044645
1617.00  -5.37434224   1.43306230
1618.00  -5.38554893   1.43568127
1619.00  -5.39676190   1.43830335
1620.00  -5.40798116   1.44092854
1621.00  -5.41920669   1.44355685
1622.00  -5.43043850   1.44618828
1623.00  -5.44167658   1.44882283
1624.00  -5.45292094   1.45146050
1625.00  -5.46417158   1.45410130
1626.00  -5.47542849   1.45674522
1627.00  -5.48669167   1.45939226
1628.00  -5.49796112   1.46204244
1629.00  -5.50923684   1.46469574
1630.00  -5.52051883   1.46735218
1631.00  -5.53180709   1.47001174
1632.00  -5.54310161   1.47267445
1633.00  -5.55440240   1.47534029
1634.00  -5.56570946   1.47800926
1635.00  -5.57702277   1.48068138
1636.00  -5.58834235   1.48335664
1637.00  -5.59966819   1.48603504
1638.00  -5.61100028   1.48871658
1639.00  -5.62233864   1.49140127
1640.00  -5.63368325   1.49408911
1641.00  -5.64503412   1.49678010
1642.00  -5.65639124   1.49947424
1643.00  -5.66775462   1.50217153
1644.00  -5.67912425   1.50487197
1645.00  -5.69050013   1.50757557
1646.00  -5.70188226   1.51028233
1647.00  -5.71327064   1.51299224
1648.00  -5.72466526   1.51570532
1649.00  -5.73606614   1.51842156
1650.00  -5.74747326   1.52114096
1651.00  -5.75888662   1.52386353
1652.00  -5.77030623   1.52658926
1653.00  -5.78173207   1.52931817
1654.00  -5.79316416   1.53205024
1655.00  -5.80460249   1.53478548
1656.00  -5.81604706   1.53752390
1657.00  -5.82749787   1.54026549
1658.00  -5.83895491   1.54301026
1659.00  -5.85041818   1.54575821
1660.00  -5.86188769   1.54850934
1661.00  -5.87336343   1.55126365
1662.00  -5.88484541   1.55402114
1663.00  -5.89633361   1.55678181
1664.00  -5.90782805   1.55954568
1665.00  -5.91932871   1.56231273
1666.00  -5.93083560   1.56508296
1667.00  -5.94234871   1.56785639
1668.00  -5.95386805   1.57063302
1669.00  -5.96539361   1.57341283
1670.00  -5.97692539   1.57619584
1671.00  -5.98846340   1.57898205
1672.00  -6.00000762   1.58177146
1673.00  -6.01155807   1.58456407
1674.00  -6.02311473   1.58735988
1675.00  -6.03467761   1.59015890
1676.00  -6.04624670   1.59296112
1677.00  -6.05782200   1.59576654
1678.00  -6.06940352   1.59857518
1679.00  -6.08099125   1.60138702
1680.00  -6.09258520   1.60420208
1681.00  -6.10418535   1.60702035
1682.00  -6.11579170   1.60984184
1683.00  -6.12740427   1.61266654
1684.00  -6.13902304   1.61549446
1685.00  -6.15064802   1.61832559
1686.00  -6.16227919   1.62115995
1687.00  -6.17391658   1.62399754
1688.00  -6.18556016   1.62683834
1689.00  -6.19720994   1.62968238
1690.00  -6.20886592   1.63252964
1691.00  -6.22052810   1.63538013
1692.00  -6.23219647   1.63823385
1693.00  -6.24387104   1.64109080
1694.00  -6.25555180   1.64395099
1695.00  -6.26723876   1.64681441
1696.00  -6.27893191   1.64968107
1697.00  -6.29063124   1.65255097
1698.00  -6.30233677   1.65542411
1699.00  -6.31404849   1.65830049
1700.00  -6.32576639   1.66118011
1701.00  -6.33749048   1.66406298
1702.00  -6.34922075   1.66694909
1703.00  -6.36095720   1.66983845
1704.00  -6.37269984   1.67273107
1705.00  -6.38444866   1.67562693
1706.00  -6.39620365   1.67852605
1707.00  -6.40796483   1.68142842
1708.00  -6.41973218   1.68433404
1709.00  -6.43150571   1.68724293
1710.00  -6.44328542   1.69015507
1711.00  -6.45507130   1.69307048
1712.00  -6.46686335   1.69598914
1713.00  -6.47866157   1.69891107
1714.00  -6.49046596   1.70183627
1715.00  -6.50227652   1.70476473
1716.00  -6.51409325   1.70769647
1717.00  -6.52591614   1.71063147
1718.00  -6.53774521   1.71356974
1719.00  -6.54958043   1.71651129
1720.00  -6.56142182   1.71945611
1721.00  -6.57326937   1.72240421
1722.00  -6.58512308   1.72535558
1723.00  -6.59698295   1.72831024
1724.00  -6.60884897   1.73126818
1725.00  -6.62072116   1.73422940
1726.00  -6.63259950   1.73719390
1727.00  -6.64448399   1.74016169
1728.00  -6.65637464   1.74313277
1729.00  -6.66827144   1.74610713
1730.00  -6.68017439   1.74908479
1731.00  -6.69208349   1.75206574
1732.00  -6.70399874   1.75504998
1733.00  -6.71592014   1.75803752
1734.00  -6.72784768   1.76102835
1735.00  -6.73978137   1.76402249
1736.00  -6.75172120   1.76701992
1737.00  -6.76366718   1.77002065
1738.00  -6.77561930   1.77302469
1739.00  -6.78757755   1.77603203
1740.00  -6.79954195   1.77904268
1741.00  -6.81151248   1.78205664
1742.00  -6.82348915   1.78507390
1743.00  -6.83547195   1.78809448
1744.00  -6.84746089   1.79111837
1745.00  -6.85945596   1.79414557
1746.00  -6.87145716   1.79717609
1747.00  -6.88346450   1.80020992
1748.00  -6.89547796   1.80324708
1749.00  -6.90749755   1.80628755
1750.00  -6.91952327   1.80933135
1751.00  -6.93155511   1.81237847
1752.00  -6.94359308   1.81542891
1753.00  -6.95563717   1.81848268
1754.00  -6.96768738   1.82153978
1755.00  -6.97974372   1.82460021
1756.00  -6.99180617   1.82766397
1757.00  -7.00387474   1.83073106
1758.00  -7.01594943   1.83380148
1759.00  -7.02803023   1.83687524
1760.00  -7.04011715   1.83995234
1761.00  -7.05221019   1.84303278
1762.00  -7.06430933   1.84611656
1763.00  -7.07641459   1.84920368
1764.00  -7.08852595   1.85229414
1765.00  -7.10064343   1.85538795
1766.00  -7.11276701   1.85848510
1767.00  -7.12489670   1.86158561
1768.00  -7.13703249   1.86468946
1769.00  -7.14917439   1.86779666
1770.00  -7.16132239   1.87090722
1771.00  -7.17347649   1.87402113
1772.00  -7.18563669   1.87713839
1773.00  -7.19780298   1.88025902
1774.00  -7.20997538   1.88338300
1775.00  -7.22215387   1.88651034
1776.00  -7.23433846   1.88964105
1777.00  -7.24652914   1.89277512
1778.00  -7.25872592   1.89591255
1779.00  -7.27092879   1.89905335
1780.00  -7.28313774   1.90219752
1781.00  -7.29535279   1.90534505
1782.00  -7.30757392   1.90849596
1783.00  -7.31980114   1.91165024
1784.00  -7.33203445   1.91480790
1785.00  -7.34427384   1.91796893
1786.00  -7.35651931   1.92113334
1787.00  -7.36877086   1.92430113
1788.00  -7.38102850   1.92747230
1789.00  -7.39329221   1.93064685
1790.00  -7.40556200   1.93382478
1791.00  -7.41783787   1.93700610
1792.00  -7.43011981   1.94019080
1793.00  -7.44240783   1.94337890
1794.00  -7.45470192   1.94657038
1795.00  -7.46700209   1.94976525
1796.00  -7.47930832   1.95296352
1797.00  -7.49162062   1.95616518
1798.00  -7.50393899   1.95937024
1799.00  -7.51626343   1.96257869
1800.00  -7.52859393   1.96579054
1801.00  -7.54093050   1.96900579
1802.00  -7.55327313   1.97222445
1803.00  -7.56562182   1.97544651
1804.00  -7.57797658   1.97867197
1805.00  -7.59033739   1.98190084
1806.00  -7.60270426   1.98513311
1807.00  -7.61507719   1.98836880
1808.00  -7.62745617   1.99160790
1809.00  -7.63984121   1.99485041
1810.00  -7.65223230   1.99809633
1811.00  -7.66462944   2.00134567
1812.00  -7.67703264   2.00459842
1813.00  -7.68944188   2.00785460
1814.00  -7.70185717   2.01111419
1815.00  -7.71427851   2.01437721
1816.00  -7.72670589   2.01764365
1817.00  -7.73913932   2.02091351
1818.00  -7.75157880   2.02418680
1819.00  -7.76402431   2.02746352
1820.00  -7.77647586   2.03074367
1821.00  -7.78893346   2.03402725
1822.00  -7.80139709   2.03731426
1823.00  -7.81386676   2.04060470
1824.00  -7.82634247   2.04389858
1825.00  -7.83882421   2.04719589
1826.00  -7.85131198   2.05049665
1827.00  -7.86380579   2.05380084
1828.00  -7.87630562   2.05710847
1829.00  -7.88881149   2.06041955
1830.00  -7.90132338   2.06373407
1831.00  -7.91384130   2.06705204
1832.00  -7.92636525   2.07037346
1833.00  -7.93889522   2.07369832
1834.00  -7.95143122   2.07702663
1835.00  -7.96397323   2.08035840
1836.00  -7.97652127   2.08369362
1837.00  -7.98907533   2.08703229
1838.00  -8.00163540   2.09037442
1839.00  -8.01420149   2.09372001
1840.00  -8.02677360   2.09706906
1841.00  -8.03935172   2.10042157
1842.00  -8.05193586   2.10377754
1843.00  -8.06452601   2.10713697
1844.00  -8.07712217   2.11049987
1845.00  -8.08972433   2.11386624
1846.00  -8.10233251   2.11723607
1847.00  -8.11494669   2.12060938
1848.00  -8.12756688   2.12398615
1849.00  -8.14019308   2.12736640
1850.00  -8.15282527   2.13075013
1851.00  -8.16546347   2.13413733
1852.00  -8.17810767   2.13752800
1853.00  -8.19075787   2.14092216
1854.00  -8.20341406   2.14431979
1855.00  -8.21607626   2.14772091
1856.00  -8.22874445   2.15112551
1857.00  -8.24141863   2.15453360
1858.00  -8.25409881   2.15794517
1859.00  -8.26678497   2.16136023
1860.00  -8.27947713   2.16477878
1861.00  -8.29217528   2.16820082
1862.00  -8.30487942   2.17162635
1863.00  -8.31758954   2.17505538
1864.00  -8.33030565   2.17848790
1865.00  -8.34302774   2.18192392
1866.00  -8.35575581   2.18536344
1867.00  -8.36848987   2.18880645
1868.00  -8.38122991   2.19225297
1869.00  -8.39397593   2.19570299
1870.00  -8.40672792   2.19915652
1871.00  -8.41948589   2.20261355
1872.00  -8.43224984   2.20607408
1873.00  -8.44501976   2.20953813
1874.00  -8.45779565   2.21300569
1875.00  -8.47057751   2.21647675
1876.00  -8.48336535   2.21995133
1877.00  -8.49615915   2.22342943
1878.00  -8.50895892   2.22691104
1879.00  -8.52176466   2.23039617
1880.00  -8.53457637   2.23388482
1881.00  -8.54739403   2.23737699
1882.00  -8.56021766   2.24087268
1883.00  -8.57304725   2.24437189
1884.00  -8.58588280   2.24787463
1885.00  -8.59872431   2.25138090
1886.00  -8.61157178   2.25489069
1887.00  -8.62442520   2.25840402
1888.00  -8.63728458   2.26192087
1889.00  -8.65014991   2.26544126
1890.00  -8.66302120   2.26896518
1891.00  -8.67589843   2.27249263
1892.00  -8.68878162   2.27602362
1893.00  -8.70167075   2.27955816
1894.00  -8.71456583   2.28309623
1895.00  -8.72746686   2.28663784
1896.00  -8.74037383   2.29018299
1897.00  -8.75328674   2.29373169
1898.00  -8.76620560   2.29728393
1899.00  -8.77913040   2.30083972
1900.00  -8.79206114   2.30439906
1901.00  -8.80499781   2.30796195
1902.00  -8.81794043   2.31152839
1903.00  -8.83088897   2.31509839
1904.00  -8.84384346   2.31867194
1905.00  -8.85680387   2.32224904
1906.00  -8.86977022   2.32582970
1907.00  -8.88274250   2.32941392
1908.00  -8.89572071   2.33300171
1909.00  -8.90870484   2.33659305
1910.00  -8.92169490   2.34018795
1911.00  -8.93469089   2.34378642
1912.00  -8.94769280   2.34738846
1913.00  -8.96070064   2.35099407
1914.00  -8.97371439   2.35460324
1915.00  -8.98673407   2.35821598
1916.00  -8.99975966   2.36183230
1917.00  -9.01279118   2.36545219
1918.00  -9.02582861   2.36907565
1919.00  -9.03887195   2.37270269
1920.00  -9.05192121   2.37633331
1921.00  -9.06497638   2.37996751
1922.00  -9.07803746   2.38360529
1923.00  -9.09110445   2.38724665
1924.00  -9.10417735   2.39089160
1925.00  -9.11725616   2.39454012
1926.00  -9.13034087   2.39819224
1927.00  -9.14343149   2.40184795
1928.00  -9.15652801   2.40550724
1929.00  -9.16963044   2.40917012
1930.00  -9.18273876   2.41283660
1931.00  -9.19585298   2.41650667
1932.00  -9.20897311   2.42018034
1933.00  -9.22209913   2.42385760
1934.00  -9.23523104   2.42753846
1935.00  -9.24836885   2.43122292
1936.00  -9.26151255   2.43491099
1937.00  -9.27466215   2.43860265
1938.00  -9.28781763   2.44229792
1939.00  -9.30097900   2.44599679
1940.00  -9.31414627   2.44969927
1941.00  -9.32731941   2.45340536
1942.00  -9.34049845   2.45711506
1943.00  -9.35368336   2.46082837
1944.00  -9.36687416   2.46454529
1945.00  -9.38007084   2.46826583
1946.00  -9.39327341   2.47198998
1947.00  -9.40648185   2.47571775
1948.00  -9.41969616   2.47944914
1949.00  -9.43291636   2.48318415
1950.00  -9.44614242   2.48692278
1951.00  -9.45937436   2.49066503
1952.00  -9.47261218   2.49441091
1953.00  -9.48585586   2.49816041
1954.00  -9.49910542   2.50191354
1955.00  -9.51236084   2.50567030
1956.00  -9.52562213   2.50943068
1957.00  -9.53888928   2.51319470
1958.00  -9.55216230   2.51696235
1959.00  -9.56544118   2.52073364
1960.00  -9.57872593   2.52450856
1961.00  -9.59201653   2.52828712
1962.00  -9.60531299   2.53206932
1963.00  -9.61861532   2.53585515
1964.00  -9.63192349   2.53964463
1965.00  -9.64523753   2.54343775
1966.00  -9.65855741   2.54723452
1967.00  -9.67188315   2.55103493
1968.00  -9.68521474   2.55483899
1969.00  -9.69855218   2.55864670
1970.00  -9.71189547   2.56245806
1971.00  -9.72524461   2.56627307
1972.00  -9.73859959   2.57009173
1973.00  -9.75196041   2.57391404
1974.00  -9.76532708   2.57774001
1975.00  -9.77869960   2.58156964
1976.00  -9.79207795   2.58540293
1977.00  -9.80546214   2.58923988
1978.00  -9.81885217   2.59308049
1979.00  -9.83224804   2.59692476
1980.00  -9.84564974   2.60077270
1981.00  -9.85905727   2.60462430
1982.00  -9.87247064   2.60847957
1983.00  -9.88588984   2.61233851
1984.00  -9.89931487   2.61620111
1985.00  -9.91274573   2.62006739
1986.00  -9.92618242   2.62393734
1987.00  -9.93962493   2.62781097
1988.00  -9.95307327   2.63168827
1989.00  -9.96652743   2.63556925
1990.00  -9.97998741   2.63945391
1991.00  -9.99345321   2.64334225
1992.00 -10.00692484   2.64723426
1993.00 -10.02040228   2.65112996
1994.00 -10.03388554   2.65502935
1995.00 -10.04737461   2.65893242
1996.00 -10.06086950   2.66283918
1997.00 -10.07437020   2.66674963
1998.00 -10.08787671   2.67066376
1999.00 -10.10138904   2.67458159
2000.00 -10.11490717   2.67850311
