wavelength(nm)         real         imag
200.00   3.79442651   0.00201770
201.00   3.79336852   0.00204811
202.00   3.79230527   0.00207882
203.00   3.79123675   0.00210984
204.00   3.79016296   0.00214117
205.00   3.78908390   0.00217280
206.00   3.78799957   0.00220475
207.00   3.78690998   0.00223700
208.00   3.78581511   0.00226957
209.00   3.78471498   0.00230245
210.00   3.78360958   0.00233565
211.00   3.78249891   0.00236917
212.00   3.78138298   0.00240301
213.00   3.78026177   0.00243716
214.00   3.77913530   0.00247164
215.00   3.77800356   0.00250644
216.00   3.77686656   0.00254157
217.00   3.77572429   0.00257702
218.00   3.77457675   0.00261280
219.00   3.77342394   0.00264891
220.00   3.77226587   0.00268535
221.00   3.77110253   0.00272213
222.00   3.76993392   0.00275924
223.00   3.76876005   0.00279668
224.00   3.76758091   0.00283446
225.00   3.76639651   0.00287258
226.00   3.76520683   0.00291104
227.00   3.76401190   0.00294984
228.00   3.76281170   0.00298899
229.00   3.76160623   0.00302847
230.00   3.76039549   0.00306831
231.00   3.75917950   0.00310849
232.00   3.75795823   0.00314902
233.00   3.75673170   0.00318991
234.00   3.75549991   0.00323114
235.00   3.75426285   0.00327273
236.00   3.75302053   0.00331467
237.00   3.75177294   0.00335697
238.00   3.75052009   0.00339963
239.00   3.74926197   0.00344265
240.00   3.74799859   0.00348603
241.00   3.74672995   0.00352977
242.00   3.74545604   0.00357387
243.00   3.74417687   0.00361835
244.00   3.74289243   0.00366319
245.00   3.74160273   0.00370839
246.00   3.74030777   0.00375397
247.00   3.73900754   0.00379992
248.00   3.73770206   0.00384624
249.00   3.73639130   0.00389294
250.00   3.73507529   0.00394001
251.00   3.73375401   0.00398746
252.00   3.73242748   0.00403529
253.00   3.73109567   0.00408351
254.00   3.72975861   0.00413210
255.00   3.72841629   0.00418108
256.00   3.72706870   0.00423044
257.00   3.72571585   0.00428019
258.00   3.72435774   0.00433033
259.00   3.72299437   0.00438085
260.00   3.72162574   0.00443177
261.00   3.72025184   0.00448308
262.00   3.71887269   0.00453479
263.00   3.71748827   0.00458689
264.00   3.71609860   0.00463939
265.00   3.71470366   0.00469229
266.00   3.71330346   0.00474559
267.00   3.71189801   0.00479929
268.00   3.71048729   0.00485339
269.00   3.70907131   0.00490790
270.00   3.70765008   0.00496281
271.00   3.70622358   0.00501813
272.00   3.70479182   0.00507386
273.00   3.70335481   0.00513001
274.00   3.70191253   0.00518656
275.00   3.70046500   0.00524353
276.00   3.69901221   0.00530091
277.00   3.69755416   0.00535871
278.00   3.69609085   0.00541693
279.00   3.69462228   0.00547557
280.00   3.69314846   0.00553463
281.00   3.69166938   0.00559411
282.00   3.69018504   0.00565402
283.00   3.68869544   0.00571436
284.00   3.68720058   0.00577512
285.00   3.68570047   0.00583631
286.00   3.68419510   0.00589793
287.00   3.68268447   0.00595998
288.00   3.68116859   0.00602246
289.00   3.67964745   0.00608538
290.00   3.67812105   0.00614874
291.00   3.67658940   0.00621253
292.00   3.67505249   0.00627677
293.00   3.67351032   0.00634144
294.00   3.67196290   0.00640656
295.00   3.67041022   0.00647212
296.00   3.66885229   0.00653813
297.00   3.66728910   0.00660458
298.00   3.66572066   0.00667148
299.00   3.66414696   0.00673883
300.00   3.66256801   0.00680663
301.00   3.66098380   0.00687489
302.00   3.65939434   0.00694360
303.00   3.65779962   0.00701277
304.00   3.65619965   0.00708239
305.00   3.65459443   0.00715247
306.00   3.65298395   0.00722302
307.00   3.65136822   0.00729402
308.00   3.64974723   0.00736549
309.00   3.64812099   0.00743742
310.00   3.64648950   0.00750982
311.00   3.64485276   0.00758269
312.00   3.64321076   0.00765603
313.00   3.64156351   0.00772983
314.00   3.63991101   0.00780411
315.00   3.63825326   0.00787887
316.00   3.63659025   0.00795410
317.00   3.63492200   0.00802980
318.00   3.63324849   0.00810599
319.00   3.63156973   0.00818265
320.00   3.62988572   0.00825980
321.00   3.62819645   0.00833743
322.00   3.62650194   0.00841554
323.00   3.62480217   0.00849414
324.00   3.62309716   0.00857323
325.00   3.62138690   0.00865280
326.00   3.61967138   0.00873287
327.00   3.61795061   0.00881343
328.00   3.61622460   0.00889448
329.00   3.61449334   0.00897603
330.00   3.61275682   0.00905807
331.00   3.61101506   0.00914061
332.00   3.60926805   0.00922365
333.00   3.60751579   0.00930719
334.00   3.60575828   0.00939123
335.00   3.60399552   0.00947578
336.00   3.60222751   0.00956083
337.00   3.60045426   0.00964639
338.00   3.59867576   0.00973246
339.00   3.59689201   0.00981904
340.00   3.59510301   0.00990613
341.00   3.59330877   0.00999373
342.00   3.59150928   0.01008185
343.00   3.58970454   0.01017048
344.00   3.58789455   0.01025963
345.00   3.58607932   0.01034930
346.00   3.58425885   0.01043949
347.00   3.58243312   0.01053020
348.00   3.58060215   0.01062143
349.00   3.57876594   0.01071319
350.00   3.57692448   0.01080548
351.00   3.57507777   0.01089829
352.00   3.57322582   0.01099164
353.00   3.57136863   0.01108551
354.00   3.56950619   0.01117992
355.00   3.56763850   0.01127486
356.00   3.56576557   0.01137033
357.00   3.56388740   0.01146634
358.00   3.56200398   0.01156289
359.00   3.56011532   0.01165998
360.00   3.55822142   0.01175762
361.00   3.55632227   0.01185579
362.00   3.55441788   0.01195451
363.00   3.55250825   0.01205377
364.00   3.55059337   0.01215359
365.00   3.54867326   0.01225395
366.00   3.54674790   0.01235486
367.00   3.54481729   0.01245632
368.00   3.54288145   0.01255834
369.00   3.54094036   0.01266091
370.00   3.53899404   0.01276404
371.00   3.53704247   0.01286772
372.00   3.53508566   0.01297197
373.00   3.53312361   0.01307677
374.00   3.53115632   0.01318214
375.00   3.52918379   0.01328807
376.00   3.52720602   0.01339457
377.00   3.52522301   0.01350163
378.00   3.52323476   0.01360926
379.00   3.52124127   0.01371746
380.00   3.51924255   0.01382624
381.00   3.51723858   0.01393558
382.00   3.51522937   0.01404550
383.00   3.51321493   0.01415600
384.00   3.51119525   0.01426707
385.00   3.50917033   0.01437872
386.00   3.50714017   0.01449095
387.00   3.50510477   0.01460376
388.00   3.50306414   0.01471716
389.00   3.50101827   0.01483114
390.00   3.49896716   0.01494571
391.00   3.49691081   0.01506086
392.00   3.49484923   0.01517661
393.00   3.49278242   0.01529294
394.00   3.49071036   0.01540987
395.00   3.48863307   0.01552739
396.00   3.48655055   0.01564550
397.00   3.48446279   0.01576422
398.00   3.48236979   0.01588353
399.00   3.48027156   0.01600344
400.00   3.47816810   0.01612395
401.00   3.47605940   0.01624506
402.00   3.47394546   0.01636678
403.00   3.47182629   0.01648910
404.00   3.46970189   0.01661203
405.00   3.46757226   0.01673557
406.00   3.46543739   0.01685972
407.00   3.46329729   0.01698448
408.00   3.46115195   0.01710985
409.00   3.45900139   0.01723584
410.00   3.45684559   0.01736244
411.00   3.45468455   0.01748967
412.00   3.45251829   0.01761751
413.00   3.45034680   0.01774597
414.00   3.44817007   0.01787505
415.00   3.44598811   0.01800476
416.00   3.44380092   0.01813509
417.00   3.44160850   0.01826605
418.00   3.43941085   0.01839763
419.00   3.43720797   0.01852985
420.00   3.43499986   0.01866269
421.00   3.43278652   0.01879617
422.00   3.43056795   0.01893028
423.00   3.42834415   0.01906503
424.00   3.42611512   0.01920042
425.00   3.42388087   0.01933644
426.00   3.42164138   0.01947310
427.00   3.41939667   0.01961041
428.00   3.41714673   0.01974835
429.00   3.41489156   0.01988694
430.00   3.41263116   0.02002618
431.00   3.41036554   0.02016607
432.00   3.40809468   0.02030660
433.00   3.40581861   0.02044778
434.00   3.40353730   0.02058962
435.00   3.40125077   0.02073211
436.00   3.39895901   0.02087525
437.00   3.39666203   0.02101905
438.00   3.39435982   0.02116351
439.00   3.39205239   0.02130862
440.00   3.38973973   0.02145440
441.00   3.38742184   0.02160084
442.00   3.38509873   0.02174794
443.00   3.38277040   0.02189571
444.00   3.38043684   0.02204414
445.00   3.37809806   0.02219325
446.00   3.37575406   0.02234302
447.00   3.37340483   0.02249346
448.00   3.37105038   0.02264458
449.00   3.36869070   0.02279637
450.00   3.36632581   0.02294884
451.00   3.36395569   0.02310198
452.00   3.36158035   0.02325580
453.00   3.35919979   0.02341030
454.00   3.35681400   0.02356548
455.00   3.35442300   0.02372135
456.00   3.35202677   0.02387790
457.00   3.34962532   0.02403514
458.00   3.34721866   0.02419306
459.00   3.34480677   0.02435167
460.00   3.34238966   0.02451097
461.00   3.33996734   0.02467097
462.00   3.33753979   0.02483166
463.00   3.33510702   0.02499304
464.00   3.33266904   0.02515512
465.00   3.33022584   0.02531790
466.00   3.32777741   0.02548137
467.00   3.32532377   0.02564555
468.00   3.32286492   0.02581043
469.00   3.32040084   0.02597601
470.00   3.31793155   0.02614230
471.00   3.31545704   0.02630930
472.00   3.31297731   0.02647700
473.00   3.31049237   0.02664542
474.00   3.30800221   0.02681454
475.00   3.30550684   0.02698438
476.00   3.30300625   0.02715493
477.00   3.30050044   0.02732620
478.00   3.29798942   0.02749818
479.00   3.29547319   0.02767088
480.00   3.29295174   0.02784431
481.00   3.29042507   0.02801845
482.00   3.28789319   0.02819332
483.00   3.28535610   0.02836891
484.00   3.28281380   0.02854523
485.00   3.28026628   0.02872227
486.00   3.27771354   0.02890005
487.00   3.27515560   0.02907855
488.00   3.27259244   0.02925779
489.00   3.27002407   0.02943776
490.00   3.26745049   0.02961846
491.00   3.26487170   0.02979991
492.00   3.26228770   0.02998209
493.00   3.25969848   0.03016500
494.00   3.25710406   0.03034866
495.00   3.25450442   0.03053307
496.00   3.25189958   0.03071821
497.00   3.24928952   0.03090410
498.00   3.24667426   0.03109074
499.00   3.24405378   0.03127813
500.00   3.24142810   0.03146626
501.00   3.23879721   0.03165515
502.00   3.23616111   0.03184479
503.00   3.23351980   0.03203518
504.00   3.23087328   0.03222633
505.00   3.22822156   0.03241824
506.00   3.22556463   0.03261090
507.00   3.22290249   0.03280433
508.00   3.22023515   0.03299851
509.00   3.21756260   0.03319346
510.00   3.21488484   0.03338917
511.00   3.21220188   0.03358565
512.00   3.20951371   0.03378290
513.00   3.20682033   0.03398092
514.00   3.20412176   0.03417971
515.00   3.20141797   0.03437926
516.00   3.19870899   0.03457960
517.00   3.19599479   0.03478070
518.00   3.19327540   0.03498259
519.00   3.19055080   0.03518525
520.00   3.18782100   0.03538869
521.00   3.18508599   0.03559291
522.00   3.18234579   0.03579791
523.00   3.17960038   0.03600370
524.00   3.17684977   0.03621027
525.00   3.17409395   0.03641763
526.00   3.17133294   0.03662577
527.00   3.16856672   0.03683471
528.00   3.16579531   0.03704444
529.00   3.16301869   0.03725496
530.00   3.16023687   0.03746627
531.00   3.15744986   0.03767838
532.00   3.15465764   0.03789129
533.00   3.15186022   0.03810499
534.00   3.14905761   0.03831950
535.00   3.14624980   0.03853480
536.00   3.14343679   0.03875091
537.00   3.14061858   0.03896783
538.00   3.13779517   0.03918555
539.00   3.13496656   0.03940407
540.00   3.13213276   0.03962341
541.00   3.12929376   0.03984355
542.00   3.12644957   0.04006451
543.00   3.12360018   0.04028628
544.00   3.12074559   0.04050887
545.00   3.11788581   0.04073227
546.00   3.11502083   0.04095649
547.00   3.11215066   0.04118153
548.00   3.10927529   0.04140738
549.00   3.10639473   0.04163407
550.00   3.10350897   0.04186157
551.00   3.10061802   0.04208990
552.00   3.09772188   0.04231905
553.00   3.09482055   0.04254904
554.00   3.09191402   0.04277985
555.00   3.08900230   0.04301150
556.00   3.08608538   0.04324397
557.00   3.08316328   0.04347728
558.00   3.08023598   0.04371143
559.00   3.07730350   0.04394641
560.00   3.07436582   0.04418223
561.00   3.07142295   0.04441889
562.00   3.06847489   0.04465639
563.00   3.06552164   0.04489473
564.00   3.06256320   0.04513392
565.00   3.05959957   0.04537396
566.00   3.05663076   0.04561484
567.00   3.05365675   0.04585657
568.00   3.05067756   0.04609914
569.00   3.04769318   0.04634258
570.00   3.04470361   0.04658686
571.00   3.04170885   0.04683200
572.00   3.03870891   0.04707799
573.00   3.03570378   0.04732484
574.00   3.03269346   0.04757255
575.00   3.02967796   0.04782112
576.00   3.02665727   0.04807055
577.00   3.02363140   0.04832085
578.00   3.02060034   0.04857201
579.00   3.01756410   0.04882403
580.00   3.01452267   0.04907693
581.00   3.01147606   0.04933069
582.00   3.00842426   0.04958532
583.00   3.00536729   0.04984083
584.00   3.00230512   0.05009721
585.00   2.99923778   0.05035446
586.00   2.99616525   0.05061259
587.00   2.99308755   0.05087160
588.00   2.99000466   0.05113149
589.00   2.98691658   0.05139226
590.00   2.98382333   0.05165391
591.00   2.98072490   0.05191644
592.00   2.97762129   0.05217986
593.00   2.97451249   0.05244417
594.00   2.97139852   0.05270936
595.00   2.96827937   0.05297544
596.00   2.96515503   0.05324242
597.00   2.96202552   0.05351029
598.00   2.95889084   0.05377905
599.00   2.95575097   0.05404871
600.00   2.95260592   0.05431926
601.00   2.94945570   0.05459071
602.00   2.94630030   0.05486307
603.00   2.94313973   0.05513632
604.00   2.93997398   0.05541048
605.00   2.93680305   0.05568554
606.00   2.93362695   0.05596150
607.00   2.93044567   0.05623838
608.00   2.92725922   0.05651616
609.00   2.92406759   0.05679485
610.00   2.92087079   0.05707446
611.00   2.91766881   0.05735497
612.00   2.91446166   0.05763640
613.00   2.91124934   0.05791875
614.00   2.90803185   0.05820202
615.00   2.90480918   0.05848620
616.00   2.90158134   0.05877131
617.00   2.89834833   0.05905733
618.00   2.89511015   0.05934428
619.00   2.89186679   0.05963215
620.00   2.88861827   0.05992096
621.00   2.88536457   0.06021068
622.00   2.88210571   0.06050134
623.00   2.87884167   0.06079293
624.00   2.87557247   0.06108545
625.00   2.87229810   0.06137890
626.00   2.86901855   0.06167329
627.00   2.86573384   0.06196861
628.00   2.86244397   0.06226488
629.00   2.85914892   0.06256208
630.00   2.85584871   0.06286022
631.00   2.85254333   0.06315931
632.00   2.84923279   0.06345934
633.00   2.84591707   0.06376031
634.00   2.84259620   0.06406223
635.00   2.83927015   0.06436510
636.00   2.83593895   0.06466892
637.00   2.83260257   0.06497369
638.00   2.82926104   0.06527941
639.00   2.82591434   0.06558609
640.00   2.82256247   0.06589372
641.00   2.81920545   0.06620231
642.00   2.81584326   0.06651185
643.00   2.81247590   0.06682236
644.00   2.80910339   0.06713383
645.00   2.80572571   0.06744626
646.00   2.80234287   0.06775965
647.00   2.79895488   0.06807401
648.00   2.79556172   0.06838934
649.00   2.79216340   0.06870563
650.00   2.78875992   0.06902290
651.00   2.78535128   0.06934113
652.00   2.78193748   0.06966034
653.00   2.77851852   0.06998053
654.00   2.77509441   0.07030169
655.00   2.77166513   0.07062383
656.00   2.76823070   0.07094694
657.00   2.76479111   0.07127104
658.00   2.76134637   0.07159612
659.00   2.75789647   0.07192218
660.00   2.75444141   0.07224922
661.00   2.75098119   0.07257725
662.00   2.74751582   0.07290627
663.00   2.74404530   0.07323628
664.00   2.74056962   0.07356728
665.00   2.73708879   0.07389927
666.00   2.73360280   0.07423225
667.00   2.73011166   0.07456623
668.00   2.72661536   0.07490120
669.00   2.72311392   0.07523717
670.00   2.71960732   0.07557415
671.00   2.71609557   0.07591212
672.00   2.71257866   0.07625109
673.00   2.70905661   0.07659107
674.00   2.70552940   0.07693205
675.00   2.70199705   0.07727404
676.00   2.69845954   0.07761703
677.00   2.69491688   0.07796104
678.00   2.69136908   0.07830605
679.00   2.68781612   0.07865208
680.00   2.68425802   0.07899912
681.00   2.68069477   0.07934718
682.00   2.67712637   0.07969625
683.00   2.67355283   0.08004634
684.00   2.66997413   0.08039745
685.00   2.66639029   0.08074958
686.00   2.66280131   0.08110274
687.00   2.65920717   0.08145691
688.00   2.65560790   0.08181211
689.00   2.65200347   0.08216834
690.00   2.64839390   0.08252560
691.00   2.64477919   0.08288389
692.00   2.64115934   0.08324320
693.00   2.63753434   0.08360355
694.00   2.63390419   0.08396494
695.00   2.63026891   0.08432736
696.00   2.62662848   0.08469081
697.00   2.62298291   0.08505531
698.00   2.61933220   0.08542084
699.00   2.61567635   0.08578742
700.00   2.61201535   0.08615503
701.00   2.60834922   0.08652370
702.00   2.60467795   0.08689340
703.00   2.60100153   0.08726416
704.00   2.59731998   0.08763596
705.00   2.59363329   0.08800881
706.00   2.58994146   0.08838271
707.00   2.58624449   0.08875767
708.00   2.58254239   0.08913368
709.00   2.57883514   0.08951075
710.00   2.57512276   0.08988887
711.00   2.57140525   0.09026805
712.00   2.56768259   0.09064829
713.00   2.56395481   0.09102960
714.00   2.56022188   0.09141196
715.00   2.55648383   0.09179539
716.00   2.55274063   0.09217989
717.00   2.54899231   0.09256545
718.00   2.54523885   0.09295208
719.00   2.54148026   0.09333978
720.00   2.53771653   0.09372855
721.00   2.53394767   0.09411840
722.00   2.53017368   0.09450932
723.00   2.52639456   0.09490132
724.00   2.52261031   0.09529439
725.00   2.51882092   0.09568854
726.00   2.51502641   0.09608377
727.00   2.51122677   0.09648009
728.00   2.50742199   0.09687748
729.00   2.50361209   0.09727596
730.00   2.49979706   0.09767553
731.00   2.49597690   0.09807618
732.00   2.49215161   0.09847793
733.00   2.48832120   0.09888076
734.00   2.48448566   0.09928469
735.00   2.48064499   0.09968970
736.00   2.47679919   0.10009582
737.00   2.47294827   0.10050303
738.00   2.46909223   0.10091133
739.00   2.46523106   0.10132074
740.00   2.46136476   0.10173124
741.00   2.45749334   0.10214285
742.00   2.45361680   0.10255556
743.00   2.44973513   0.10296937
744.00   2.44584834   0.10338430
745.00   2.44195643   0.10380032
746.00   2.43805940   0.10421746
747.00   2.43415724   0.10463571
748.00   2.43024997   0.10505507
749.00   2.42633757   0.10547554
750.00   2.42242005   0.10589713
751.00   2.41849741   0.10631983
752.00   2.41456966   0.10674365
753.00   2.41063678   0.10716859
754.00   2.40669879   0.10759466
755.00   2.40275567   0.10802184
756.00   2.39880744   0.10845014
757.00   2.39485409   0.10887957
758.00   2.39089563   0.10931013
759.00   2.38693205   0.10974182
760.00   2.38296335   0.11017463
761.00   2.37898953   0.11060857
762.00   2.37501061   0.11104365
763.00   2.37102656   0.11147986
764.00   2.36703740   0.11191720
765.00   2.36304313   0.11235568
766.00   2.35904375   0.11279530
767.00   2.35503925   0.11323606
768.00   2.35102964   0.11367796
769.00   2.34701491   0.11412100
770.00   2.34299508   0.11456518
771.00   2.33897013   0.11501051
772.00   2.33494007   0.11545698
773.00   2.33090491   0.11590461
774.00   2.32686463   0.11635338
775.00   2.32281924   0.11680330
776.00   2.31876874   0.11725437
777.00   2.31471314   0.11770660
778.00   2.31065242   0.11815998
779.00   2.30658660   0.11861452
780.00   2.30251567   0.11907022
781.00   2.29843964   0.11952707
782.00   2.29435849   0.11998509
783.00   2.29027224   0.12044427
784.00   2.28618089   0.12090461
785.00   2.28208443   0.12136611
786.00   2.27798286   0.12182879
787.00   2.27387619   0.12229263
788.00   2.26976442   0.12275764
789.00   2.26564755   0.12322382
790.00   2.26152557   0.12369117
791.00   2.25739848   0.12415969
792.00   2.25326630   0.12462940
793.00   2.24912901   0.12510027
794.00   2.24498663   0.12557233
795.00   2.24083914   0.12604556
796.00   2.23668655   0.12651998
797.00   2.23252886   0.12699557
798.00   2.22836607   0.12747235
799.00   2.22419819   0.12795032
800.00   2.22002520   0.12842947
801.00   2.21584712   0.12890981
802.00   2.21166394   0.12939134
803.00   2.20747566   0.12987406
804.00   2.20328228   0.13035797
805.00   2.19908381   0.13084307
806.00   2.19488025   0.13132937
807.00   2.19067158   0.13181687
808.00   2.18645783   0.13230556
809.00   2.18223897   0.13279545
810.00   2.17801503   0.13328654
811.00   2.17378599   0.13377884
812.00   2.16955186   0.13427234
813.00   2.16531263   0.13476704
814.00   2.16106831   0.13526295
815.00   2.15681890   0.13576007
816.00   2.15256440   0.13625840
817.00   2.14830481   0.13675793
818.00   2.14404013   0.13725868
819.00   2.13977036   0.13776064
820.00   2.13549549   0.13826382
821.00   2.13121554   0.13876822
822.00   2.12693050   0.13927383
823.00   2.12264038   0.13978066
824.00   2.11834516   0.14028871
825.00   2.11404486   0.14079798
826.00   2.10973947   0.14130848
827.00   2.10542900   0.14182020
828.00   2.10111344   0.14233315
829.00   2.09679279   0.14284732
830.00   2.09246706   0.14336272
831.00   2.08813624   0.14387936
832.00   2.08380035   0.14439723
833.00   2.07945936   0.14491633
834.00   2.07511330   0.14543666
835.00   2.07076215   0.14595823
836.00   2.06640592   0.14648104
837.00   2.06204461   0.14700509
838.00   2.05767821   0.14753037
839.00   2.05330674   0.14805690
840.00   2.04893019   0.14858467
841.00   2.04454855   0.14911369
842.00   2.04016184   0.14964396
843.00   2.03577005   0.15017547
844.00   2.03137318   0.15070823
845.00   2.02697123   0.15124224
846.00   2.02256421   0.15177750
847.00   2.01815211   0.15231401
848.00   2.01373493   0.15285178
849.00   2.00931267   0.15339081
850.00   2.00488534   0.15393109
851.00   2.00045294   0.15447263
852.00   1.99601546   0.15501544
853.00   1.99157291   0.15555950
854.00   1.98712528   0.15610483
855.00   1.98267258   0.15665142
856.00   1.97821481   0.15719928
857.00   1.97375196   0.15774840
858.00   1.96928405   0.15829879
859.00   1.96481106   0.15885046
860.00   1.96033300   0.15940339
861.00   1.95584988   0.15995760
862.00   1.95136168   0.16051308
863.00   1.94686841   0.16106984
864.00   1.94237008   0.16162788
865.00   1.93786667   0.16218719
866.00   1.93335820   0.16274779
867.00   1.92884466   0.16330966
868.00   1.92432605   0.16387282
869.00   1.91980238   0.16443726
870.00   1.91527364   0.16500299
871.00   1.91073984   0.16557001
872.00   1.90620097   0.16613831
873.00   1.90165704   0.16670791
874.00   1.89710804   0.16727879
875.00   1.89255398   0.16785097
876.00   1.88799486   0.16842445
877.00   1.88343068   0.16899921
878.00   1.87886143   0.16957528
879.00   1.87428712   0.17015264
880.00   1.86970775   0.17073131
881.00   1.86512332   0.17131127
882.00   1.86053383   0.17189254
883.00   1.85593928   0.17247511
884.00   1.85133967   0.17305899
885.00   1.84673501   0.17364417
886.00   1.84212528   0.17423066
887.00   1.83751050   0.17481846
888.00   1.83289066   0.17540758
889.00   1.82826576   0.17599800
890.00   1.82363581   0.17658974
891.00   1.81900080   0.17718280
892.00   1.81436074   0.17777717
893.00   1.80971563   0.17837286
894.00   1.80506545   0.17896987
895.00   1.80041023   0.17956820
896.00   1.79574995   0.18016785
897.00   1.79108462   0.18076882
898.00   1.78641424   0.18137112
899.00   1.78173881   0.18197475
900.00   1.77705832   0.18257971
901.00   1.77237279   0.18318599
902.00   1.76768220   0.18379361
903.00   1.76298657   0.18440256
904.00   1.75828588   0.18501284
905.00   1.75358015   0.18562445
906.00   1.74886937   0.18623741
907.00   1.74415354   0.18685170
908.00   1.73943267   0.18746733
909.00   1.73470675   0.18808430
910.00   1.72997578   0.18870261
911.00   1.72523976   0.18932227
912.00   1.72049871   0.18994327
913.00   1.71575260   0.19056561
914.00   1.71100146   0.19118931
915.00   1.70624527   0.19181435
916.00   1.70148404   0.19244075
917.00   1.69671776   0.19306849
918.00   1.69194644   0.19369759
919.00   1.68717009   0.19432804
920.00   1.68238869   0.19495985
921.00   1.67760225   0.19559302
922.00   1.67281077   0.19622755
923.00   1.66801425   0.19686343
924.00   1.66321269   0.19750068
925.00   1.65840609   0.19813929
926.00   1.65359446   0.19877927
927.00   1.64877779   0.19942061
928.00   1.64395608   0.20006331
929.00   1.63912934   0.20070739
930.00   1.63429756   0.20135284
931.00   1.62946074   0.20199966
932.00   1.62461889   0.20264785
933.00   1.61977201   0.20329741
934.00   1.61492009   0.20394835
935.00   1.61006314   0.20460067
936.00   1.60520116   0.20525437
937.00   1.60033414   0.20590944
938.00   1.59546209   0.20656590
939.00   1.59058501   0.20722374
940.00   1.58570290   0.20788296
941.00   1.58081577   0.20854357
942.00   1.57592360   0.20920557
943.00   1.57102640   0.20986895
944.00   1.56612417   0.21053372
945.00   1.56121692   0.21119989
946.00   1.55630464   0.21186745
947.00   1.55138733   0.21253640
948.00   1.54646499   0.21320674
949.00   1.54153763   0.21387848
950.00   1.53660525   0.21455162
951.00   1.53166784   0.21522616
952.00   1.52672540   0.21590210
953.00   1.52177794   0.21657945
954.00   1.51682546   0.21725819
955.00   1.51186796   0.21793834
956.00   1.50690543   0.21861990
957.00   1.50193788   0.21930286
958.00   1.49696531   0.21998724
959.00   1.49198772   0.22067302
960.00   1.48700511   0.22136022
961.00   1.48201748   0.22204882
962.00   1.47702484   0.22273885
963.00   1.47202717   0.22343029
964.00   1.46702448   0.22412314
965.00   1.46201678   0.22481742
966.00   1.45700406   0.22551312
967.00   1.45198633   0.22621023
968.00   1.44696358   0.22690877
969.00   1.44193581   0.22760874
970.00   1.43690303   0.22831013
971.00   1.43186523   0.22901295
972.00   1.42682243   0.22971719
973.00   1.42177460   0.23042287
974.00   1.41672177   0.23112997
975.00   1.41166392   0.23183851
976.00   1.40660107   0.23254849
977.00   1.40153320   0.23325990
978.00   1.39646032   0.23397274
979.00   1.39138243   0.23468703
980.00   1.38629953   0.23540275
981.00   1.38121163   0.23611992
982.00   1.37611871   0.23683852
983.00   1.37102079   0.23755857
984.00   1.36591786   0.23828007
985.00   1.36080992   0.23900301
986.00   1.35569698   0.23972740
987.00   1.35057903   0.24045324
988.00   1.34545608   0.24118053
989.00   1.34032812   0.24190928
990.00   1.33519516   0.24263947
991.00   1.33005720   0.24337112
992.00   1.32491423   0.24410423
993.00   1.31976626   0.24483879
994.00   1.31461329   0.24557482
995.00   1.30945532   0.24631230
996.00   1.30429235   0.24705125
997.00   1.29912438   0.24779165
998.00   1.29395141   0.24853353
999.00   1.28877344   0.24927687
1000.00   1.28359047   0.25002167
1001.00   1.27840250   0.25076795
1002.00   1.27320954   0.25151569
1003.00   1.26801158   0.25226491
1004.00   1.26280862   0.25301560
1005.00   1.25760067   0.25376776
1006.00   1.25238772   0.25452140
1007.00   1.24716978   0.25527651
1008.00   1.24194684   0.25603311
1009.00   1.23671891   0.25679118
1010.00   1.23148599   0.25755074
1011.00   1.22624808   0.25831177
1012.00   1.22100517   0.25907429
1013.00   1.21575728   0.25983830
1014.00   1.21050439   0.26060379
1015.00   1.20524651   0.26137077
1016.00   1.19998365   0.26213924
1017.00   1.19471579   0.26290920
1018.00   1.18944295   0.26368065
1019.00   1.18416512   0.26445360
1020.00   1.17888230   0.26522804
1021.00   1.17359449   0.26600397
1022.00   1.16830170   0.26678141
1023.00   1.16300392   0.26756034
1024.00   1.15770116   0.26834078
1025.00   1.15239342   0.26912271
1026.00   1.14708069   0.26990615
1027.00   1.14176297   0.27069109
1028.00   1.13644028   0.27147754
1029.00   1.13111260   0.27226549
1030.00   1.12577994   0.27305496
1031.00   1.12044230   0.27384593
1032.00   1.11509968   0.27463842
1033.00   1.10975208   0.27543241
1034.00   1.10439950   0.27622793
1035.00   1.09904194   0.27702495
1036.00   1.09367940   0.27782350
1037.00   1.08831189   0.27862356
1038.00   1.08293940   0.27942514
1039.00   1.07756193   0.28022824
1040.00   1.07217949   0.28103287
1041.00   1.06679207   0.28183902
1042.00   1.06139967   0.28264669
1043.00   1.05600231   0.28345589
1044.00   1.05059996   0.28426661
1045.00   1.04519265   0.28507887
1046.00   1.03978036   0.28589266
1047.00   1.03436311   0.28670798
1048.00   1.02894088   0.28752483
1049.00   1.02351368   0.28834321
1050.00   1.01808151   0.28916314
1051.00   1.01264437   0.28998460
1052.00   1.00720226   0.29080759
1053.00   1.00175518   0.29163213
1054.00   0.99630314   0.29245821
1055.00   0.99084612   0.29328583
1056.00   0.98538415   0.29411500
1057.00   0.97991720   0.29494571
1058.00   0.97444529   0.29577797
1059.00   0.96896842   0.29661178
1060.00   0.96348658   0.29744713
1061.00   0.95799977   0.29828404
1062.00   0.95250801   0.29912250
1063.00   0.94701128   0.29996252
1064.00   0.94150959   0.30080408
1065.00   0.93600294   0.30164721
1066.00   0.93049132   0.30249189
1067.00   0.92497475   0.30333813
1068.00   0.91945322   0.30418594
1069.00   0.91392673   0.30503530
1070.00   0.90839528   0.30588623
1071.00   0.90285887   0.30673872
1072.00   0.89731750   0.30759278
1073.00   0.89177118   0.30844840
1074.00   0.88621990   0.30930559
1075.00   0.88066367   0.31016436
1076.00   0.87510248   0.31102469
1077.00   0.86953634   0.31188660
1078.00   0.86396524   0.31275008
1079.00   0.85838919   0.31361514
1080.00   0.85280819   0.31448177
1081.00   0.84722224   0.31534999
1082.00   0.84163133   0.31621978
1083.00   0.83603548   0.31709115
1084.00   0.83043467   0.31796411
1085.00   0.82482892   0.31883864
1086.00   0.81921821   0.31971477
1087.00   0.81360256   0.32059248
1088.00   0.80798196   0.32147178
1089.00   0.80235641   0.32235266
1090.00   0.79672591   0.32323514
1091.00   0.79109047   0.32411921
1092.00   0.78545009   0.32500487
1093.00   0.77980476   0.32589213
1094.00   0.77415448   0.32678098
1095.00   0.76849926   0.32767143
1096.00   0.76283910   0.32856347
1097.00   0.75717400   0.32945712
1098.00   0.75150395   0.33035237
1099.00   0.74582896   0.33124922
1100.00   0.74014904   0.33214768
1101.00   0.73446417   0.33304774
1102.00   0.72877436   0.33394940
1103.00   0.72307961   0.33485268
1104.00   0.71737993   0.33575756
1105.00   0.71167531   0.33666406
1106.00   0.70596575   0.33757217
1107.00   0.70025126   0.33848189
1108.00   0.69453182   0.33939322
1109.00   0.68880746   0.34030617
1110.00   0.68307816   0.34122074
1111.00   0.67734392   0.34213693
1112.00   0.67160476   0.34305474
1113.00   0.66586065   0.34397417
1114.00   0.66011162   0.34489522
1115.00   0.65435766   0.34581789
1116.00   0.64859876   0.34674220
1117.00   0.64283494   0.34766812
1118.00   0.63706618   0.34859568
1119.00   0.63129250   0.34952487
1120.00   0.62551389   0.35045569
1121.00   0.61973034   0.35138813
1122.00   0.61394188   0.35232222
1123.00   0.60814848   0.35325794
1124.00   0.60235016   0.35419529
1125.00   0.59654692   0.35513428
1126.00   0.59073875   0.35607491
1127.00   0.58492565   0.35701719
1128.00   0.57910763   0.35796110
1129.00   0.57328469   0.35890666
1130.00   0.56745683   0.35985386
1131.00   0.56162404   0.36080270
1132.00   0.55578634   0.36175320
1133.00   0.54994371   0.36270534
1134.00   0.54409616   0.36365913
1135.00   0.53824370   0.36461457
1136.00   0.53238631   0.36557167
1137.00   0.52652401   0.36653042
1138.00   0.52065679   0.36749082
1139.00   0.51478465   0.36845288
1140.00   0.50890760   0.36941660
1141.00   0.50302563   0.37038198
1142.00   0.49713875   0.37134902
1143.00   0.49124695   0.37231772
1144.00   0.48535024   0.37328808
1145.00   0.47944861   0.37426011
1146.00   0.47354208   0.37523380
1147.00   0.46763063   0.37620916
1148.00   0.46171427   0.37718619
1149.00   0.45579300   0.37816489
1150.00   0.44986682   0.37914526
1151.00   0.44393573   0.38012731
1152.00   0.43799973   0.38111102
1153.00   0.43205883   0.38209642
1154.00   0.42611301   0.38308348
1155.00   0.42016229   0.38407223
1156.00   0.41420667   0.38506266
1157.00   0.40824614   0.38605476
1158.00   0.40228070   0.38704855
1159.00   0.39631036   0.38804402
1160.00   0.39033511   0.38904118
1161.00   0.38435497   0.39004002
1162.00   0.37836992   0.39104055
1163.00   0.37237997   0.39204277
1164.00   0.36638511   0.39304668
1165.00   0.36038536   0.39405228
1166.00   0.35438071   0.39505957
1167.00   0.34837115   0.39606856
1168.00   0.34235670   0.39707924
1169.00   0.33633736   0.39809161
1170.00   0.33031311   0.39910569
1171.00   0.32428397   0.40012147
1172.00   0.31824993   0.40113894
1173.00   0.31221100   0.40215812
1174.00   0.30616717   0.40317900
1175.00   0.30011844   0.40420158
1176.00   0.29406483   0.40522588
1177.00   0.28800632   0.40625188
1178.00   0.28194292   0.40727958
1179.00   0.27587463   0.40830900
1180.00   0.26980144   0.40934013
1181.00   0.26372337   0.41037297
1182.00   0.25764040   0.41140752
1183.00   0.25155255   0.41244379
1184.00   0.24545981   0.41348178
1185.00   0.23936218   0.41452149
1186.00   0.23325967   0.41556291
1187.00   0.22715227   0.41660605
1188.00   0.22103998   0.41765092
1189.00   0.21492280   0.41869751
1190.00   0.20880075   0.41974582
1191.00   0.20267381   0.42079586
1192.00   0.19654198   0.42184763
1193.00   0.19040528   0.42290113
1194.00   0.18426369   0.42395635
1195.00   0.17811722   0.42501331
1196.00   0.17196587   0.42607200
1197.00   0.16580964   0.42713242
1198.00   0.15964853   0.42819458
1199.00   0.15348254   0.42925847
1200.00   0.14731167   0.43032411
1201.00   0.14113593   0.43139148
1202.00   0.13495531   0.43246059
1203.00   0.12876981   0.43353144
1204.00   0.12257944   0.43460404
1205.00   0.11638419   0.43567838
1206.00   0.11018407   0.43675447
1207.00   0.10397908   0.43783230
1208.00   0.09776921   0.43891189
1209.00   0.09155447   0.43999322
1210.00   0.08533486   0.44107630
1211.00   0.07911038   0.44216114
1212.00   0.07288103   0.44324773
1213.00   0.06664681   0.44433607
1214.00   0.06040772   0.44542617
1215.00   0.05416376   0.44651803
1216.00   0.04791493   0.44761165
1217.00   0.04166124   0.44870702
1218.00   0.03540268   0.44980416
1219.00   0.02913926   0.45090306
1220.00   0.02287097   0.45200373
1221.00   0.01659781   0.45310616
1222.00   0.01031980   0.45421036
1223.00   0.00403692   0.45531633
1224.00  -0.00225083   0.45642406
1225.00  -0.00854343   0.45753357
1226.00  -0.01484089   0.45864485
1227.00  -0.02114322   0.45975790
1228.00  -0.02745040   0.46087273
1229.00  -0.03376245   0.46198933
1230.00  -0.04007935   0.46310771
1231.00  -0.04640111   0.46422787
1232.00  -0.05272773   0.46534981
1233.00  -0.05905920   0.46647353
1234.00  -0.06539553   0.46759903
1235.00  -0.07173671   0.46872632
1236.00  -0.07808275   0.46985539
1237.00  -0.08443364   0.47098625
1238.00  -0.09078938   0.47211890
1239.00  -0.09714998   0.47325334
1240.00  -0.10351543   0.47438956
1241.00  -0.10988573   0.47552758
1242.00  -0.11626088   0.47666739
1243.00  -0.12264088   0.47780900
1244.00  -0.12902572   0.47895240
1245.00  -0.13541542   0.48009760
1246.00  -0.14180997   0.48124460
1247.00  -0.14820936   0.48239339
1248.00  -0.15461359   0.48354399
1249.00  -0.16102268   0.48469639
1250.00  -0.16743660   0.48585060
1251.00  -0.17385538   0.48700660
1252.00  -0.18027899   0.48816442
1253.00  -0.18670745   0.48932404
1254.00  -0.19314075   0.49048547
1255.00  -0.19957889   0.49164871
1256.00  -0.20602188   0.49281377
1257.00  -0.21246970   0.49398063
1258.00  -0.21892236   0.49514931
1259.00  -0.22537986   0.49631981
1260.00  -0.23184220   0.49749212
1261.00  -0.23830938   0.49866625
1262.00  -0.24478139   0.49984220
1263.00  -0.25125824   0.50101997
1264.00  -0.25773993   0.50219956
1265.00  -0.26422645   0.50338098
1266.00  -0.27071780   0.50456421
1267.00  -0.27721399   0.50574928
1268.00  -0.28371501   0.50693617
1269.00  -0.29022087   0.50812489
1270.00  -0.29673155   0.50931544
1271.00  -0.30324706   0.51050782
1272.00  -0.30976741   0.51170204
1273.00  -0.31629258   0.51289809
1274.00  -0.32282259   0.51409597
1275.00  -0.32935742   0.51529569
1276.00  -0.33589707   0.51649724
1277.00  -0.34244156   0.51770064
1278.00  -0.34899087   0.51890587
1279.00  -0.35554500   0.52011295
1280.00  -0.36210396   0.52132187
1281.00  -0.36866775   0.52253263
1282.00  -0.37523636   0.52374524
1283.00  -0.38180978   0.52495969
1284.00  -0.38838804   0.52617600
1285.00  -0.39497111   0.52739415
1286.00  -0.40155900   0.52861415
1287.00  -0.40815171   0.52983601
1288.00  -0.41474924   0.53105972
1289.00  -0.42135159   0.53228528
1290.00  -0.42795876   0.53351270
1291.00  -0.43457075   0.53474197
1292.00  -0.44118755   0.53597310
1293.00  -0.44780916   0.53720610
1294.00  -0.45443559   0.53844095
1295.00  -0.46106684   0.53967767
1296.00  -0.46770290   0.54091624
1297.00  -0.47434377   0.54215669
1298.00  -0.48098945   0.54339900
1299.00  -0.48763995   0.54464318
1300.00  -0.49429525   0.54588922
1301.00  -0.50095537   0.54713714
1302.00  -0.50762029   0.54838693
1303.00  -0.51429002   0.54963859
1304.00  -0.52096457   0.55089212
1305.00  -0.52764391   0.55214753
1306.00  -0.53432807   0.55340481
1307.00  -0.54101703   0.55466398
1308.00  -0.54771079   0.55592502
1309.00  -0.55440936   0.55718794
1310.00  -0.56111274   0.55845274
1311.00  -0.56782092   0.55971943
1312.00  -0.57453389   0.56098800
1313.00  -0.58125168   0.56225846
1314.00  -0.58797426   0.56353080
1315.00  -0.59470164   0.56480503
1316.00  -0.60143382   0.56608115
1317.00  -0.60817080   0.56735916
1318.00  -0.61491258   0.56863906
1319.00  -0.62165915   0.56992086
1320.00  -0.62841053   0.57120455
1321.00  -0.63516669   0.57249013
1322.00  -0.64192766   0.57377762
1323.00  -0.64869341   0.57506700
1324.00  -0.65546397   0.57635828
1325.00  -0.66223931   0.57765146
1326.00  -0.66901945   0.57894654
1327.00  -0.67580438   0.58024353
1328.00  -0.68259410   0.58154242
1329.00  -0.68938861   0.58284322
1330.00  -0.69618791   0.58414592
1331.00  -0.70299200   0.58545054
1332.00  -0.70980087   0.58675706
1333.00  -0.71661454   0.58806550
1334.00  -0.72343299   0.58937584
1335.00  -0.73025623   0.59068810
1336.00  -0.73708425   0.59200228
1337.00  -0.74391706   0.59331837
1338.00  -0.75075465   0.59463638
1339.00  -0.75759702   0.59595631
1340.00  -0.76444418   0.59727816
1341.00  -0.77129612   0.59860193
1342.00  -0.77815284   0.59992762
1343.00  -0.78501434   0.60125524
1344.00  -0.79188062   0.60258478
1345.00  -0.79875168   0.60391624
1346.00  -0.80562751   0.60524964
1347.00  -0.81250813   0.60658497
1348.00  -0.81939352   0.60792222
1349.00  -0.82628368   0.60926141
1350.00  -0.83317863   0.61060253
1351.00  -0.84007834   0.61194558
1352.00  -0.84698283   0.61329057
1353.00  -0.85389210   0.61463750
1354.00  -0.86080613   0.61598636
1355.00  -0.86772494   0.61733716
1356.00  -0.87464852   0.61868991
1357.00  -0.88157687   0.62004459
1358.00  -0.88850999   0.62140122
1359.00  -0.89544788   0.62275979
1360.00  -0.90239053   0.62412031
1361.00  -0.90933795   0.62548278
1362.00  -0.91629014   0.62684719
1363.00  -0.92324710   0.62821355
1364.00  -0.93020882   0.62958187
1365.00  -0.93717531   0.63095213
1366.00  -0.94414655   0.63232435
1367.00  -0.95112257   0.63369852
1368.00  -0.95810334   0.63507465
1369.00  -0.96508888   0.63645274
1370.00  -0.97207917   0.63783278
1371.00  -0.97907423   0.63921479
1372.00  -0.98607405   0.64059875
1373.00  -0.99307862   0.64198468
1374.00  -1.00008795   0.64337257
1375.00  -1.00710204   0.64476243
1376.00  -1.01412089   0.64615425
1377.00  -1.02114449   0.64754804
1378.00  -1.02817285   0.64894379
1379.00  -1.03520596   0.65034152
1380.00  -1.04224383   0.65174122
1381.00  -1.04928645   0.65314289
1382.00  -1.05633382   0.65454653
1383.00  -1.06338594   0.65595215
1384.00  -1.07044281   0.65735974
1385.00  -1.07750443   0.65876932
1386.00  -1.08457080   0.66018087
1387.00  -1.09164192   0.66159440
1388.00  -1.09871779   0.66300991
1389.00  -1.10579840   0.66442740
1390.00  -1.11288376   0.66584688
1391.00  -1.11997387   0.66726834
1392.00  -1.12706872   0.66869179
1393.00  -1.13416831   0.67011723
1394.00  -1.14127265   0.67154465
1395.00  -1.14838173   0.67297407
1396.00  -1.15549555   0.67440547
1397.00  -1.16261412   0.67583887
1398.00  -1.16973742   0.67727426
1399.00  -1.17686546   0.67871165
1400.00  -1.18399825   0.68015103
1401.00  -1.19113577   0.68159241
1402.00  -1.19827802   0.68303579
1403.00  -1.20542502   0.68448117
1404.00  -1.21257675   0.68592855
1405.00  -1.21973321   0.68737794
1406.00  -1.22689441   0.68882933
1407.00  -1.23406034   0.69028272
1408.00  -1.24123101   0.69173812
1409.00  -1.24840641   0.69319552
1410.00  -1.25558654   0.69465494
1411.00  -1.26277140   0.69611636
1412.00  -1.26996099   0.69757980
1413.00  -1.27715531   0.69904525
1414.00  -1.28435435   0.70051271
1415.00  -1.29155813   0.70198219
1416.00  -1.29876663   0.70345369
1417.00  -1.30597986   0.70492720
1418.00  -1.31319781   0.70640273
1419.00  -1.32042049   0.70788028
1420.00  -1.32764789   0.70935985
1421.00  -1.33488002   0.71084145
1422.00  -1.34211687   0.71232507
1423.00  -1.34935844   0.71381071
1424.00  -1.35660473   0.71529838
1425.00  -1.36385574   0.71678808
1426.00  -1.37111147   0.71827981
1427.00  -1.37837192   0.71977357
1428.00  -1.38563708   0.72126936
1429.00  -1.39290697   0.72276718
1430.00  -1.40018157   0.72426703
1431.00  -1.40746088   0.72576893
1432.00  -1.41474491   0.72727285
1433.00  -1.42203366   0.72877882
1434.00  -1.42932712   0.73028682
1435.00  -1.43662529   0.73179686
1436.00  -1.44392817   0.73330895
1437.00  -1.45123576   0.73482308
1438.00  -1.45854807   0.73633925
1439.00  -1.46586508   0.73785747
1440.00  -1.47318680   0.73937773
1441.00  -1.48051324   0.74090004
1442.00  -1.48784437   0.74242440
1443.00  -1.49518022   0.74395081
1444.00  -1.50252077   0.74547927
1445.00  -1.50986602   0.74700979
1446.00  -1.51721598   0.74854235
1447.00  -1.52457065   0.75007698
1448.00  -1.53193001   0.75161365
1449.00  -1.53929408   0.75315239
1450.00  -1.54666285   0.75469319
1451.00  -1.55403632   0.75623604
1452.00  -1.56141449   0.75778096
1453.00  -1.56879736   0.75932794
1454.00  -1.57618493   0.76087698
1455.00  -1.58357719   0.76242809
1456.00  -1.59097415   0.76398126
1457.00  -1.59837581   0.76553651
1458.00  -1.60578216   0.76709382
1459.00  -1.61319321   0.76865320
1460.00  -1.62060895   0.77021465
1461.00  -1.62802938   0.77177817
1462.00  -1.63545451   0.77334377
1463.00  -1.64288432   0.77491144
1464.00  -1.65031883   0.77648119
1465.00  -1.65775803   0.77805302
1466.00  -1.66520191   0.77962693
1467.00  -1.67265048   0.78120291
1468.00  -1.68010375   0.78278098
1469.00  -1.68756169   0.78436113
1470.00  -1.69502433   0.78594336
1471.00  -1.70249165   0.78752767
1472.00  -1.70996365   0.78911408
1473.00  -1.71744034   0.79070257
1474.00  -1.72492171   0.79229315
1475.00  -1.73240776   0.79388582
1476.00  -1.73989849   0.79548057
1477.00  -1.74739391   0.79707743
1478.00  -1.75489400   0.79867637
1479.00  -1.76239877   0.80027741
1480.00  -1.76990822   0.80188055
1481.00  -1.77742235   0.80348578
1482.00  -1.78494115   0.80509311
1483.00  -1.79246464   0.80670254
1484.00  -1.79999279   0.80831408
1485.00  -1.80752562   0.80992771
1486.00  -1.81506312   0.81154345
1487.00  -1.82260530   0.81316129
1488.00  -1.83015215   0.81478124
1489.00  -1.83770367   0.81640329
1490.00  -1.84525986   0.81802745
1491.00  -1.85282072   0.81965373
1492.00  -1.86038625   0.82128211
1493.00  -1.86795644   0.82291260
1494.00  -1.87553131   0.82454521
1495.00  -1.88311084   0.82617993
1496.00  -1.89069503   0.82781677
1497.00  -1.89828389   0.82945573
1498.00  -1.90587742   0.83109680
1499.00  -1.91347561   0.83273999
1500.00  -1.92107846   0.83438530
1501.00  -1.92868597   0.83603274
1502.00  -1.93629815   0.83768229
1503.00  -1.94391498   0.83933398
1504.00  -1.95153647   0.84098778
1505.00  -1.95916263   0.84264372
1506.00  -1.96679344   0.84430178
1507.00  -1.97442890   0.84596197
1508.00  -1.98206903   0.84762429
1509.00  -1.98971381   0.84928874
1510.00  -1.99736324   0.85095532
1511.00  -2.00501733   0.85262404
1512.00  -2.01267607   0.85429490
1513.00  -2.02033946   0.85596789
1514.00  -2.02800751   0.85764301
1515.00  -2.03568021   0.85932028
1516.00  -2.04335755   0.86099969
1517.00  -2.05103955   0.86268123
1518.00  -2.05872619   0.86436492
1519.00  -2.06641748   0.86605076
1520.00  -2.07411342   0.86773874
1521.00  -2.08181400   0.86942886
1522.00  -2.08951923   0.87112113
1523.00  -2.09722911   0.87281555
1524.00  -2.10494363   0.87451213
1525.00  -2.11266279   0.87621085
1526.00  -2.12038659   0.87791172
1527.00  -2.12811503   0.87961475
1528.00  -2.13584812   0.88131993
1529.00  -2.14358584   0.88302727
1530.00  -2.15132821   0.88473676
1531.00  -2.15907521   0.88644841
1532.00  -2.16682685   0.88816223
1533.00  -2.17458312   0.88987820
1534.00  -2.18234403   0.89159634
1535.00  -2.19010958   0.89331663
1536.00  -2.19787976   0.89503910
1537.00  -2.20565457   0.89676372
1538.00  -2.21343402   0.89849052
1539.00  -2.22121810   0.90021948
1540.00  -2.22900680   0.90195061
1541.00  -2.23680014   0.90368392
1542.00  -2.24459811   0.90541939
1543.00  -2.25240071   0.90715704
1544.00  -2.26020793   0.90889686
1545.00  -2.26801978   0.91063885
1546.00  -2.27583626   0.91238303
1547.00  -2.28365737   0.91412937
1548.00  -2.29148309   0.91587790
1549.00  -2.29931344   0.91762861
1550.00  -2.30714842   0.91938150
1551.00  -2.31498801   0.92113658
1552.00  -2.32283223   0.92289383
1553.00  -2.33068107   0.92465327
1554.00  -2.33853453   0.92641490
1555.00  -2.34639260   0.92817871
1556.00  -2.35425530   0.92994472
1557.00  -2.36212261   0.93171291
1558.00  -2.36999454   0.93348329
1559.00  -2.37787108   0.93525587
1560.00  -2.38575224   0.93703064
1561.00  -2.39363802   0.93880760
1562.00  -2.40152840   0.94058676
1563.00  -2.40942340   0.94236812
1564.00  -2.41732301   0.94415167
1565.00  -2.42522723   0.94593742
1566.00  -2.43313607   0.94772538
1567.00  -2.44104951   0.94951553
1568.00  -2.44896756   0.95130789
1569.00  -2.45689021   0.95310246
1570.00  -2.46481748   0.95489922
1571.00  -2.47274934   0.95669820
1572.00  -2.48068582   0.95849938
1573.00  -2.48862690   0.96030277
1574.00  -2.49657258   0.96210837
1575.00  -2.50452287   0.96391618
1576.00  -2.51247775   0.96572621
1577.00  -2.52043724   0.96753845
1578.00  -2.52840133   0.96935290
1579.00  -2.53637002   0.97116957
1580.00  -2.54434330   0.97298846
1581.00  -2.55232119   0.97480956
1582.00  -2.56030367   0.97663289
1583.00  -2.56829075   0.97845844
1584.00  -2.57628242   0.98028620
1585.00  -2.58427869   0.98211619
1586.00  -2.59227955   0.98394841
1587.00  -2.60028500   0.98578285
1588.00  -2.60829505   0.98761952
1589.00  -2.61630968   0.98945842
1590.00  -2.62432891   0.99129954
1591.00  -2.63235273   0.99314290
1592.00  -2.64038113   0.99498848
1593.00  -2.64841413   0.99683630
1594.00  -2.65645171   0.99868636
1595.00  -2.66449388   1.00053865
1596.00  -2.67254063   1.00239317
1597.00  -2.68059197   1.00424994
1598.00  -2.68864789   1.00610894
1599.00  -2.69670840   1.00797018
1600.00  -2.70477348   1.00983366
1601.00  -2.71284315   1.01169939
1602.00  -2.72091740   1.01356736
1603.00  -2.72899623   1.01543757
1604.00  -2.73707964   1.01731003
1605.00  -2.74516762   1.01918474
1606.00  -2.75326019   1.02106169
1607.00  -2.76135733   1.02294089
1608.00  -2.76945904   1.02482235
1609.00  -2.77756533   1.02670606
1610.00  -2.78567619   1.02859201
1611.00  -2.79379163   1.03048023
1612.00  -2.80191164   1.03237070
1613.00  -2.81003622   1.03426342
1614.00  -2.81816537   1.03615841
1615.00  -2.82629909   1.03805565
1616.00  -2.83443739   1.03995515
1617.00  -2.84258024   1.04185691
1618.00  -2.85072767   1.04376094
1619.00  -2.85887966   1.04566723
1620.00  -2.86703622   1.04757578
1621.00  -2.87519734   1.04948660
1622.00  -2.88336303   1.05139969
1623.00  -2.89153328   1.05331504
1624.00  -2.89970809   1.05523267
1625.00  -2.90788747   1.05715256
1626.00  -2.91607140   1.05907473
1627.00  -2.92425990   1.06099917
1628.00  -2.93245295   1.06292589
1629.00  -2.94065056   1.06485488
1630.00  -2.94885273   1.06678614
1631.00  -2.95705946   1.06871969
1632.00  -2.96527074   1.07065551
1633.00  -2.97348657   1.07259361
1634.00  -2.98170696   1.07453400
1635.00  -2.98993191   1.07647667
1636.00  -2.99816140   1.07842162
1637.00  -3.00639545   1.08036885
1638.00  -3.01463405   1.08231837
1639.00  -3.02287719   1.08427018
1640.00  -3.03112489   1.08622428
1641.00  -3.03937713   1.08818067
1642.00  -3.04763393   1.09013934
1643.00  -3.05589526   1.09210031
1644.00  -3.06416115   1.09406357
1645.00  -3.07243158   1.09602913
1646.00  -3.08070655   1.09799698
1647.00  -3.08898607   1.09996713
1648.00  -3.09727012   1.10193958
1649.00  -3.10555872   1.10391432
1650.00  -3.11385186   1.10589136
1651.00  -3.12214954   1.10787071
1652.00  -3.13045176   1.10985236
1653.00  -3.13875852   1.11183631
1654.00  -3.14706981   1.11382257
1655.00  -3.15538564   1.11581113
1656.00  -3.16370600   1.11780200
1657.00  -3.17203090   1.11979518
1658.00  -3.18036034   1.12179066
1659.00  -3.18869430   1.12378846
1660.00  -3.19703280   1.12578857
1661.00  -3.20537583   1.12779099
1662.00  -3.21372339   1.12979573
1663.00  -3.22207548   1.13180278
1664.00  -3.23043210   1.13381214
1665.00  -3.23879325   1.13582383
1666.00  -3.24715892   1.13783783
1667.00  -3.25552912   1.13985416
1668.00  -3.26390385   1.14187280
1669.00  -3.27228309   1.14389377
1670.00  -3.28066687   1.14591706
1671.00  -3.28905516   1.14794267
1672.00  -3.29744798   1.14997061
1673.00  -3.30584532   1.15200088
1674.00  -3.31424718   1.15403347
1675.00  -3.32265356   1.15606840
1676.00  -3.33106445   1.15810565
1677.00  -3.33947987   1.16014524
1678.00  -3.34789980   1.16218715
1679.00  -3.35632424   1.16423141
1680.00  -3.36475321   1.16627799
1681.00  -3.37318668   1.16832692
1682.00  -3.38162467   1.17037818
1683.00  -3.39006717   1.17243177
1684.00  -3.39851419   1.17448771
1685.00  -3.40696571   1.17654599
1686.00  -3.41542175   1.17860661
1687.00  -3.42388229   1.18066958
1688.00  -3.43234734   1.18273488
1689.00  -3.44081690   1.18480254
1690.00  -3.44929097   1.18687254
1691.00  -3.45776954   1.18894488
1692.00  -3.46625261   1.19101958
1693.00  -3.47474019   1.19309662
1694.00  -3.48323228   1.19517602
1695.00  -3.49172886   1.19725777
1696.00  -3.50022995   1.19934187
1697.00  -3.50873553   1.20142833
1698.00  -3.51724562   1.20351714
1699.00  -3.52576021   1.20560831
1700.00  -3.53427929   1.20770184
1701.00  -3.54280287   1.20979773
1702.00  -3.55133095   1.21189597
1703.00  -3.55986352   1.21399658
1704.00  -3.56840058   1.21609955
1705.00  -3.57694214   1.21820489
1706.00  -3.58548820   1.22031259
1707.00  -3.59403874   1.22242265
1708.00  -3.60259377   1.22453508
1709.00  -3.61115330   1.22664988
1710.00  -3.61971731   1.22876706
1711.00  -3.62828582   1.23088660
1712.00  -3.63685881   1.23300851
1713.00  -3.64543628   1.23513279
1714.00  -3.65401825   1.23725945
1715.00  -3.66260469   1.23938849
1716.00  -3.67119563   1.24151990
1717.00  -3.67979104   1.24365369
1718.00  -3.68839094   1.24578986
1719.00  -3.69699532   1.24792840
1720.00  -3.70560418   1.25006933
1721.00  -3.71421752   1.25221264
1722.00  -3.72283533   1.25435833
1723.00  -3.73145763   1.25650641
1724.00  -3.74008440   1.25865687
1725.00  -3.74871565   1.26080972
1726.00  -3.75735137   1.26296496
1727.00  -3.76599157   1.26512259
1728.00  -3.77463625   1.26728260
1729.00  -3.78328539   1.26944501
1730.00  -3.79193901   1.27160981
1731.00  -3.80059710   1.27377700
1732.00  -3.80925965   1.27594659
1733.00  -3.81792668   1.27811857
1734.00  -3.82659818   1.28029295
1735.00  -3.83527414   1.28246973
1736.00  -3.84395457   1.28464891
1737.00  -3.85263946   1.28683048
1738.00  -3.86132882   1.28901446
1739.00  -3.87002265   1.29120084
1740.00  -3.87872094   1.29338963
1741.00  -3.88742369   1.29558082
1742.00  -3.89613090   1.29777441
1743.00  -3.90484257   1.29997041
1744.00  -3.91355870   1.30216882
1745.00  -3.92227929   1.30436964
1746.00  -3.93100433   1.30657287
1747.00  -3.93973384   1.30877852
1748.00  -3.94846780   1.31098657
1749.00  -3.95720621   1.31319704
1750.00  -3.96594908   1.31540992
1751.00  -3.97469641   1.31762522
1752.00  -3.98344818   1.31984294
1753.00  -3.99220441   1.32206307
1754.00  -4.00096509   1.32428563
1755.00  -4.00973022   1.32651060
1756.00  -4.01849979   1.32873800
1757.00  -4.02727382   1.33096782
1758.00  -4.03605229   1.33320006
1759.00  -4.04483521   1.33543473
1760.00  -4.05362257   1.33767183
1761.00  -4.06241438   1.33991135
1762.00  -4.07121063   1.34215330
1763.00  -4.08001133   1.34439768
1764.00  -4.08881647   1.34664449
1765.00  -4.09762604   1.34889373
1766.00  -4.10644006   1.35114541
1767.00  -4.11525852   1.35339952
1768.00  -4.12408142   1.35565606
1769.00  -4.13290875   1.35791505
1770.00  -4.14174052   1.36017646
1771.00  -4.15057673   1.36244032
1772.00  -4.15941737   1.36470662
1773.00  -4.16826244   1.36697536
1774.00  -4.17711195   1.36924654
1775.00  -4.18596589   1.37152016
1776.00  -4.19482426   1.37379623
1777.00  -4.20368706   1.37607474
1778.00  -4.21255429   1.37835570
1779.00  -4.22142595   1.38063911
1780.00  -4.23030204   1.38292496
1781.00  -4.23918255   1.38521327
1782.00  -4.24806749   1.38750402
1783.00  -4.25695686   1.38979723
1784.00  -4.26585065   1.39209289
1785.00  -4.27474886   1.39439101
1786.00  -4.28365149   1.39669158
1787.00  -4.29255855   1.39899461
1788.00  -4.30147002   1.40130009
1789.00  -4.31038592   1.40360803
1790.00  -4.31930624   1.40591844
1791.00  -4.32823097   1.40823130
1792.00  -4.33716012   1.41054663
1793.00  -4.34609368   1.41286442
1794.00  -4.35503166   1.41518467
1795.00  -4.36397406   1.41750739
1796.00  -4.37292087   1.41983258
1797.00  -4.38187209   1.42216023
1798.00  -4.39082772   1.42449035
1799.00  -4.39978777   1.42682294
1800.00  -4.40875222   1.42915801
1801.00  -4.41772108   1.43149554
1802.00  -4.42669435   1.43383555
1803.00  -4.43567203   1.43617803
1804.00  -4.44465411   1.43852299
1805.00  -4.45364060   1.44087042
1806.00  -4.46263149   1.44322033
1807.00  -4.47162679   1.44557273
1808.00  -4.48062649   1.44792760
1809.00  -4.48963059   1.45028495
1810.00  -4.49863909   1.45264478
1811.00  -4.50765199   1.45500710
1812.00  -4.51666929   1.45737190
1813.00  -4.52569099   1.45973918
1814.00  -4.53471709   1.46210895
1815.00  -4.54374758   1.46448121
1816.00  -4.55278247   1.46685596
1817.00  -4.56182175   1.46923320
1818.00  -4.57086542   1.47161293
1819.00  -4.57991349   1.47399515
1820.00  -4.58896595   1.47637986
1821.00  -4.59802280   1.47876707
1822.00  -4.60708404   1.48115678
1823.00  -4.61614967   1.48354898
1824.00  -4.62521969   1.48594367
1825.00  -4.63429409   1.48834087
1826.00  -4.64337288   1.49074056
1827.00  -4.65245606   1.49314276
1828.00  -4.66154362   1.49554746
1829.00  -4.67063556   1.49795466
1830.00  -4.67973189   1.50036436
1831.00  -4.68883260   1.50277657
1832.00  -4.69793769   1.50519129
1833.00  -4.70704716   1.50760851
1834.00  -4.71616101   1.51002825
1835.00  -4.72527923   1.51245049
1836.00  -4.73440184   1.51487524
1837.00  -4.74352882   1.51730250
1838.00  -4.75266017   1.51973228
1839.00  -4.76179590   1.52216457
1840.00  -4.77093601   1.52459938
1841.00  -4.78008048   1.52703670
1842.00  -4.78922933   1.52947654
1843.00  -4.79838255   1.53191889
1844.00  -4.80754014   1.53436377
1845.00  -4.81670209   1.53681117
1846.00  -4.82586842   1.53926109
1847.00  -4.83503911   1.54171353
1848.00  -4.84421417   1.54416849
1849.00  -4.85339360   1.54662598
1850.00  -4.86257738   1.54908600
1851.00  -4.87176554   1.55154854
1852.00  -4.88095805   1.55401361
1853.00  -4.89015493   1.55648121
1854.00  -4.89935616   1.55895134
1855.00  -4.90856176   1.56142400
1856.00  -4.91777172   1.56389920
1857.00  -4.92698603   1.56637693
1858.00  -4.93620470   1.56885719
1859.00  -4.94542773   1.57133999
1860.00  -4.95465511   1.57382532
1861.00  -4.96388685   1.57631319
1862.00  -4.97312293   1.57880360
1863.00  -4.98236338   1.58129656
1864.00  -4.99160817   1.58379205
1865.00  -5.00085731   1.58629008
1866.00  -5.01011081   1.58879066
1867.00  -5.01936865   1.59129378
1868.00  -5.02863084   1.59379945
1869.00  -5.03789738   1.59630767
1870.00  -5.04716826   1.59881843
1871.00  -5.05644349   1.60133174
1872.00  -5.06572306   1.60384760
1873.00  -5.07500698   1.60636601
1874.00  -5.08429524   1.60888697
1875.00  -5.09358784   1.61141049
1876.00  -5.10288478   1.61393656
1877.00  -5.11218606   1.61646519
1878.00  -5.12149167   1.61899637
1879.00  -5.13080163   1.62153011
1880.00  -5.14011592   1.62406640
1881.00  -5.14943455   1.62660526
1882.00  -5.15875751   1.62914668
1883.00  -5.16808481   1.63169066
1884.00  -5.17741644   1.63423720
1885.00  -5.18675240   1.63678631
1886.00  -5.19609270   1.63933798
1887.00  -5.20543732   1.64189221
1888.00  -5.21478627   1.64444902
1889.00  -5.22413955   1.64700839
1890.00  -5.23349716   1.64957033
1891.00  -5.24285910   1.65213484
1892.00  -5.25222536   1.65470192
1893.00  -5.26159594   1.65727158
1894.00  -5.27097085   1.65984380
1895.00  -5.28035009   1.66241861
1896.00  -5.28973364   1.66499598
1897.00  -5.29912151   1.66757594
1898.00  -5.30851371   1.67015847
1899.00  -5.31791022   1.67274358
1900.00  -5.32731106   1.67533127
1901.00  -5.33671620   1.67792155
1902.00  -5.34612567   1.68051440
1903.00  -5.35553945   1.68310984
1904.00  -5.36495755   1.68570786
1905.00  -5.37437996   1.68830847
1906.00  -5.38380668   1.69091166
1907.00  -5.39323771   1.69351744
1908.00  -5.40267305   1.69612581
1909.00  -5.41211271   1.69873676
1910.00  -5.42155667   1.70135031
1911.00  -5.43100494   1.70396645
1912.00  -5.44045751   1.70658518
1913.00  -5.44991440   1.70920651
1914.00  -5.45937559   1.71183043
1915.00  -5.46884108   1.71445695
1916.00  -5.47831087   1.71708606
1917.00  -5.48778497   1.71971777
1918.00  -5.49726337   1.72235209
1919.00  -5.50674607   1.72498900
1920.00  -5.51623307   1.72762851
1921.00  -5.52572436   1.73027062
1922.00  -5.53521996   1.73291534
1923.00  -5.54471985   1.73556266
1924.00  -5.55422403   1.73821259
1925.00  -5.56373252   1.74086512
1926.00  -5.57324529   1.74352026
1927.00  -5.58276236   1.74617801
1928.00  -5.59228372   1.74883837
1929.00  -5.60180937   1.75150134
1930.00  -5.61133931   1.75416692
1931.00  -5.62087354   1.75683512
1932.00  -5.63041206   1.75950593
1933.00  -5.63995486   1.76217935
1934.00  -5.64950195   1.76485539
1935.00  -5.65905333   1.76753405
1936.00  -5.66860899   1.77021532
1937.00  -5.67816893   1.77289921
1938.00  -5.68773316   1.77558573
1939.00  -5.69730167   1.77827486
1940.00  -5.70687446   1.78096662
1941.00  -5.71645152   1.78366100
1942.00  -5.72603287   1.78635800
1943.00  -5.73561849   1.78905763
1944.00  -5.74520840   1.79175989
1945.00  -5.75480257   1.79446477
1946.00  -5.76440102   1.79717228
1947.00  -5.77400375   1.79988243
1948.00  -5.78361075   1.80259520
1949.00  -5.79322202   1.80531060
1950.00  -5.80283756   1.80802864
1951.00  -5.81245737   1.81074931
1952.00  -5.82208145   1.81347262
1953.00  -5.83170980   1.81619856
1954.00  -5.84134242   1.81892714
1955.00  -5.85097930   1.82165836
1956.00  -5.86062045   1.82439221
1957.00  -5.87026586   1.82712871
1958.00  -5.87991554   1.82986784
1959.00  -5.88956948   1.83260962
1960.00  -5.89922768   1.83535405
1961.00  -5.90889014   1.83810111
1962.00  -5.91855686   1.84085082
1963.00  -5.92822784   1.84360318
1964.00  -5.93790307   1.84635819
1965.00  -5.94758257   1.84911584
1966.00  -5.95726631   1.85187615
1967.00  -5.96695432   1.85463910
1968.00  -5.97664658   1.85740470
1969.00  -5.98634309   1.86017296
1970.00  -5.99604385   1.86294387
1971.00  -6.00574886   1.86571744
1972.00  -6.01545813   1.86849366
1973.00  -6.02517164   1.87127254
1974.00  -6.03488940   1.87405408
1975.00  -6.04461141   1.87683827
1976.00  -6.05433766   1.87962513
1977.00  -6.06406816   1.88241465
1978.00  -6.07380291   1.88520682
1979.00  -6.08354190   1.88800166
1980.00  -6.09328513   1.89079917
1981.00  -6.10303260   1.89359934
1982.00  -6.11278431   1.89640218
1983.00  -6.12254026   1.89920768
1984.00  -6.13230045   1.90201585
1985.00  -6.14206488   1.90482669
1986.00  -6.15183354   1.90764020
1987.00  -6.16160644   1.91045638
1988.00  -6.17138358   1.91327524
1989.00  -6.18116495   1.91609676
1990.00  -6.19095055   1.91892097
1991.00  -6.20074038   1.92174784
1992.00  -6.21053444   1.92457740
1993.00  -6.22033274   1.92740963
1994.00  -6.23013526   1.93024454
1995.00  -6.23994201   1.93308213
1996.00  -6.24975299   1.93592240
1997.00  -6.25956819   1.93876535
1998.00  -6.26938762   1.94161098
1999.00  -6.27921128   1.94445930
2000.00  -6.28903915   1.94731030
