wavelength(nm)         real         imag
200.00   3.70948013   0.00364118
201.00   3.70757087   0.00369606
202.00   3.70565211   0.00375148
203.00   3.70372383   0.00380746
204.00   3.70178605   0.00386399
205.00   3.69983876   0.00392108
206.00   3.69788196   0.00397873
207.00   3.69591566   0.00403694
208.00   3.69393985   0.00409571
209.00   3.69195453   0.00415505
210.00   3.68995970   0.00421496
211.00   3.68795537   0.00427545
212.00   3.68594153   0.00433651
213.00   3.68391819   0.00439815
214.00   3.68188534   0.00446037
215.00   3.67984298   0.00452317
216.00   3.67779112   0.00458656
217.00   3.67572976   0.00465054
218.00   3.67365889   0.00471511
219.00   3.67157851   0.00478028
220.00   3.66948863   0.00484604
221.00   3.66738925   0.00491240
222.00   3.66528036   0.00497937
223.00   3.66316197   0.00504694
224.00   3.66103407   0.00511512
225.00   3.65889667   0.00518391
226.00   3.65674977   0.00525332
227.00   3.65459337   0.00532334
228.00   3.65242746   0.00539398
229.00   3.65025205   0.00546524
230.00   3.64806714   0.00553713
231.00   3.64587272   0.00560964
232.00   3.64366881   0.00568279
233.00   3.64145539   0.00575656
234.00   3.63923247   0.00583098
235.00   3.63700005   0.00590603
236.00   3.63475814   0.00598172
237.00   3.63250672   0.00605805
238.00   3.63024580   0.00613504
239.00   3.62797538   0.00621267
240.00   3.62569546   0.00629095
241.00   3.62340604   0.00636989
242.00   3.62110712   0.00644948
243.00   3.61879870   0.00652973
244.00   3.61648078   0.00661065
245.00   3.61415337   0.00669223
246.00   3.61181646   0.00677448
247.00   3.60947005   0.00685741
248.00   3.60711414   0.00694100
249.00   3.60474873   0.00702527
250.00   3.60237383   0.00711022
251.00   3.59998943   0.00719585
252.00   3.59759553   0.00728217
253.00   3.59519214   0.00736917
254.00   3.59277925   0.00745686
255.00   3.59035687   0.00754525
256.00   3.58792499   0.00763433
257.00   3.58548361   0.00772411
258.00   3.58303274   0.00781459
259.00   3.58057238   0.00790577
260.00   3.57810252   0.00799766
261.00   3.57562316   0.00809026
262.00   3.57313432   0.00818357
263.00   3.57063597   0.00827759
264.00   3.56812814   0.00837233
265.00   3.56561081   0.00846779
266.00   3.56308399   0.00856397
267.00   3.56054768   0.00866088
268.00   3.55800187   0.00875851
269.00   3.55544657   0.00885688
270.00   3.55288178   0.00895598
271.00   3.55030750   0.00905581
272.00   3.54772373   0.00915639
273.00   3.54513047   0.00925770
274.00   3.54252771   0.00935976
275.00   3.53991547   0.00946257
276.00   3.53729373   0.00956613
277.00   3.53466251   0.00967043
278.00   3.53202179   0.00977550
279.00   3.52937159   0.00988132
280.00   3.52671190   0.00998790
281.00   3.52404272   0.01009524
282.00   3.52136405   0.01020335
283.00   3.51867589   0.01031223
284.00   3.51597825   0.01042188
285.00   3.51327112   0.01053230
286.00   3.51055450   0.01064350
287.00   3.50782839   0.01075548
288.00   3.50509280   0.01086825
289.00   3.50234772   0.01098179
290.00   3.49959316   0.01109613
291.00   3.49682911   0.01121125
292.00   3.49405557   0.01132717
293.00   3.49127255   0.01144388
294.00   3.48848005   0.01156139
295.00   3.48567806   0.01167971
296.00   3.48286658   0.01179882
297.00   3.48004562   0.01191874
298.00   3.47721518   0.01203948
299.00   3.47437526   0.01216102
300.00   3.47152585   0.01228338
301.00   3.46866696   0.01240655
302.00   3.46579859   0.01253055
303.00   3.46292074   0.01265537
304.00   3.46003340   0.01278101
305.00   3.45713658   0.01290748
306.00   3.45423028   0.01303479
307.00   3.45131451   0.01316292
308.00   3.44838925   0.01329190
309.00   3.44545451   0.01342171
310.00   3.44251029   0.01355236
311.00   3.43955659   0.01368386
312.00   3.43659341   0.01381620
313.00   3.43362076   0.01394940
314.00   3.43063862   0.01408345
315.00   3.42764701   0.01421835
316.00   3.42464592   0.01435411
317.00   3.42163535   0.01449073
318.00   3.41861531   0.01462821
319.00   3.41558578   0.01476657
320.00   3.41254679   0.01490578
321.00   3.40949831   0.01504588
322.00   3.40644036   0.01518684
323.00   3.40337293   0.01532868
324.00   3.40029603   0.01547140
325.00   3.39720966   0.01561501
326.00   3.39411381   0.01575950
327.00   3.39100848   0.01590487
328.00   3.38789369   0.01605114
329.00   3.38476941   0.01619830
330.00   3.38163567   0.01634636
331.00   3.37849245   0.01649531
332.00   3.37533976   0.01664517
333.00   3.37217760   0.01679593
334.00   3.36900597   0.01694759
335.00   3.36582486   0.01710017
336.00   3.36263429   0.01725366
337.00   3.35943424   0.01740806
338.00   3.35622472   0.01756338
339.00   3.35300574   0.01771962
340.00   3.34977728   0.01787678
341.00   3.34653935   0.01803487
342.00   3.34329196   0.01819389
343.00   3.34003510   0.01835384
344.00   3.33676876   0.01851472
345.00   3.33349296   0.01867654
346.00   3.33020770   0.01883929
347.00   3.32691296   0.01900299
348.00   3.32360876   0.01916764
349.00   3.32029510   0.01933323
350.00   3.31697196   0.01949977
351.00   3.31363936   0.01966726
352.00   3.31029730   0.01983571
353.00   3.30694577   0.02000511
354.00   3.30358478   0.02017548
355.00   3.30021432   0.02034681
356.00   3.29683440   0.02051911
357.00   3.29344501   0.02069237
358.00   3.29004616   0.02086661
359.00   3.28663785   0.02104182
360.00   3.28322008   0.02121801
361.00   3.27979284   0.02139518
362.00   3.27635614   0.02157333
363.00   3.27290998   0.02175246
364.00   3.26945437   0.02193259
365.00   3.26598929   0.02211370
366.00   3.26251475   0.02229581
367.00   3.25903075   0.02247891
368.00   3.25553729   0.02266301
369.00   3.25203437   0.02284811
370.00   3.24852199   0.02303422
371.00   3.24500016   0.02322133
372.00   3.24146886   0.02340945
373.00   3.23792811   0.02359858
374.00   3.23437791   0.02378873
375.00   3.23081824   0.02397990
376.00   3.22724912   0.02417208
377.00   3.22367054   0.02436529
378.00   3.22008251   0.02455952
379.00   3.21648503   0.02475479
380.00   3.21287808   0.02495108
381.00   3.20926169   0.02514841
382.00   3.20563584   0.02534677
383.00   3.20200054   0.02554617
384.00   3.19835578   0.02574661
385.00   3.19470157   0.02594810
386.00   3.19103791   0.02615064
387.00   3.18736479   0.02635422
388.00   3.18368223   0.02655886
389.00   3.17999021   0.02676455
390.00   3.17628875   0.02697130
391.00   3.17257783   0.02717911
392.00   3.16885746   0.02738798
393.00   3.16512764   0.02759792
394.00   3.16138838   0.02780893
395.00   3.15763966   0.02802101
396.00   3.15388150   0.02823416
397.00   3.15011389   0.02844839
398.00   3.14633683   0.02866370
399.00   3.14255033   0.02888009
400.00   3.13875438   0.02909757
401.00   3.13494898   0.02931613
402.00   3.13113413   0.02953579
403.00   3.12730984   0.02975654
404.00   3.12347611   0.02997838
405.00   3.11963293   0.03020132
406.00   3.11578031   0.03042536
407.00   3.11191824   0.03065050
408.00   3.10804673   0.03087676
409.00   3.10416578   0.03110412
410.00   3.10027538   0.03133259
411.00   3.09637554   0.03156217
412.00   3.09246626   0.03179288
413.00   3.08854754   0.03202470
414.00   3.08461938   0.03225765
415.00   3.08068178   0.03249172
416.00   3.07673474   0.03272691
417.00   3.07277826   0.03296324
418.00   3.06881234   0.03320070
419.00   3.06483698   0.03343930
420.00   3.06085218   0.03367904
421.00   3.05685795   0.03391992
422.00   3.05285428   0.03416194
423.00   3.04884117   0.03440511
424.00   3.04481862   0.03464942
425.00   3.04078664   0.03489489
426.00   3.03674523   0.03514152
427.00   3.03269437   0.03538930
428.00   3.02863409   0.03563824
429.00   3.02456437   0.03588835
430.00   3.02048521   0.03613962
431.00   3.01639663   0.03639205
432.00   3.01229860   0.03664566
433.00   3.00819115   0.03690045
434.00   3.00407427   0.03715640
435.00   2.99994795   0.03741354
436.00   2.99581220   0.03767186
437.00   2.99166702   0.03793136
438.00   2.98751242   0.03819205
439.00   2.98334838   0.03845393
440.00   2.97917491   0.03871701
441.00   2.97499201   0.03898127
442.00   2.97079969   0.03924674
443.00   2.96659793   0.03951340
444.00   2.96238675   0.03978127
445.00   2.95816615   0.04005034
446.00   2.95393611   0.04032063
447.00   2.94969665   0.04059212
448.00   2.94544777   0.04086483
449.00   2.94118946   0.04113875
450.00   2.93692172   0.04141389
451.00   2.93264456   0.04169026
452.00   2.92835798   0.04196784
453.00   2.92406197   0.04224666
454.00   2.91975654   0.04252671
455.00   2.91544169   0.04280798
456.00   2.91111742   0.04309050
457.00   2.90678372   0.04337425
458.00   2.90244061   0.04365924
459.00   2.89808807   0.04394548
460.00   2.89372611   0.04423296
461.00   2.88935474   0.04452169
462.00   2.88497394   0.04481167
463.00   2.88058373   0.04510290
464.00   2.87618410   0.04539539
465.00   2.87177505   0.04568914
466.00   2.86735658   0.04598416
467.00   2.86292870   0.04628043
468.00   2.85849140   0.04657798
469.00   2.85404468   0.04687679
470.00   2.84958855   0.04717688
471.00   2.84512301   0.04747825
472.00   2.84064805   0.04778089
473.00   2.83616367   0.04808481
474.00   2.83166989   0.04839001
475.00   2.82716669   0.04869651
476.00   2.82265408   0.04900429
477.00   2.81813206   0.04931336
478.00   2.81360062   0.04962372
479.00   2.80905978   0.04993538
480.00   2.80450952   0.05024835
481.00   2.79994985   0.05056261
482.00   2.79538078   0.05087818
483.00   2.79080230   0.05119506
484.00   2.78621441   0.05151324
485.00   2.78161711   0.05183274
486.00   2.77701040   0.05215356
487.00   2.77239429   0.05247569
488.00   2.76776877   0.05279914
489.00   2.76313384   0.05312392
490.00   2.75848951   0.05345003
491.00   2.75383577   0.05377746
492.00   2.74917263   0.05410622
493.00   2.74450009   0.05443632
494.00   2.73981814   0.05476776
495.00   2.73512679   0.05510053
496.00   2.73042604   0.05543465
497.00   2.72571588   0.05577011
498.00   2.72099633   0.05610692
499.00   2.71626737   0.05644508
500.00   2.71152902   0.05678459
501.00   2.70678126   0.05712546
502.00   2.70202411   0.05746769
503.00   2.69725755   0.05781128
504.00   2.69248160   0.05815623
505.00   2.68769625   0.05850255
506.00   2.68290151   0.05885023
507.00   2.67809736   0.05919929
508.00   2.67328382   0.05954972
509.00   2.66846089   0.05990153
510.00   2.66362856   0.06025472
511.00   2.65878683   0.06060929
512.00   2.65393572   0.06096525
513.00   2.64907520   0.06132259
514.00   2.64420530   0.06168133
515.00   2.63932600   0.06204145
516.00   2.63443732   0.06240298
517.00   2.62953924   0.06276590
518.00   2.62463176   0.06313022
519.00   2.61971490   0.06349594
520.00   2.61478865   0.06386308
521.00   2.60985301   0.06423162
522.00   2.60490799   0.06460157
523.00   2.59995357   0.06497294
524.00   2.59498976   0.06534572
525.00   2.59001657   0.06571992
526.00   2.58503400   0.06609555
527.00   2.58004203   0.06647260
528.00   2.57504068   0.06685108
529.00   2.57002995   0.06723098
530.00   2.56500983   0.06761233
531.00   2.55998033   0.06799510
532.00   2.55494145   0.06837932
533.00   2.54989318   0.06876497
534.00   2.54483553   0.06915207
535.00   2.53976850   0.06954062
536.00   2.53469209   0.06993061
537.00   2.52960629   0.07032206
538.00   2.52451112   0.07071496
539.00   2.51940657   0.07110932
540.00   2.51429264   0.07150513
541.00   2.50916933   0.07190241
542.00   2.50403664   0.07230116
543.00   2.49889458   0.07270137
544.00   2.49374314   0.07310305
545.00   2.48858232   0.07350620
546.00   2.48341213   0.07391083
547.00   2.47823256   0.07431694
548.00   2.47304362   0.07472453
549.00   2.46784531   0.07513360
550.00   2.46263762   0.07554416
551.00   2.45742056   0.07595621
552.00   2.45219413   0.07636975
553.00   2.44695832   0.07678478
554.00   2.44171315   0.07720131
555.00   2.43645860   0.07761934
556.00   2.43119469   0.07803887
557.00   2.42592141   0.07845990
558.00   2.42063875   0.07888245
559.00   2.41534673   0.07930650
560.00   2.41004534   0.07973207
561.00   2.40473459   0.08015915
562.00   2.39941447   0.08058775
563.00   2.39408498   0.08101786
564.00   2.38874613   0.08144951
565.00   2.38339791   0.08188268
566.00   2.37804033   0.08231737
567.00   2.37267338   0.08275360
568.00   2.36729708   0.08319137
569.00   2.36191141   0.08363067
570.00   2.35651638   0.08407150
571.00   2.35111198   0.08451388
572.00   2.34569823   0.08495781
573.00   2.34027512   0.08540328
574.00   2.33484265   0.08585030
575.00   2.32940081   0.08629888
576.00   2.32394963   0.08674901
577.00   2.31848908   0.08720069
578.00   2.31301917   0.08765394
579.00   2.30753992   0.08810875
580.00   2.30205130   0.08856513
581.00   2.29655333   0.08902307
582.00   2.29104600   0.08948259
583.00   2.28552932   0.08994368
584.00   2.28000329   0.09040635
585.00   2.27446791   0.09087059
586.00   2.26892317   0.09133642
587.00   2.26336908   0.09180383
588.00   2.25780564   0.09227282
589.00   2.25223285   0.09274341
590.00   2.24665071   0.09321559
591.00   2.24105922   0.09368937
592.00   2.23545838   0.09416474
593.00   2.22984819   0.09464171
594.00   2.22422866   0.09512028
595.00   2.21859978   0.09560046
596.00   2.21296155   0.09608225
597.00   2.20731398   0.09656565
598.00   2.20165706   0.09705066
599.00   2.19599080   0.09753729
600.00   2.19031520   0.09802554
601.00   2.18463025   0.09851541
602.00   2.17893596   0.09900690
603.00   2.17323233   0.09950002
604.00   2.16751936   0.09999476
605.00   2.16179704   0.10049114
606.00   2.15606539   0.10098916
607.00   2.15032440   0.10148881
608.00   2.14457406   0.10199010
609.00   2.13881439   0.10249304
610.00   2.13304539   0.10299761
611.00   2.12726704   0.10350384
612.00   2.12147936   0.10401172
613.00   2.11568235   0.10452125
614.00   2.10987600   0.10503243
615.00   2.10406031   0.10554528
616.00   2.09823529   0.10605978
617.00   2.09240094   0.10657595
618.00   2.08655726   0.10709378
619.00   2.08070424   0.10761329
620.00   2.07484189   0.10813446
621.00   2.06897021   0.10865731
622.00   2.06308921   0.10918183
623.00   2.05719887   0.10970804
624.00   2.05129920   0.11023593
625.00   2.04539021   0.11076550
626.00   2.03947189   0.11129676
627.00   2.03354424   0.11182970
628.00   2.02760727   0.11236434
629.00   2.02166097   0.11290068
630.00   2.01570535   0.11343872
631.00   2.00974040   0.11397845
632.00   2.00376613   0.11451989
633.00   1.99778253   0.11506303
634.00   1.99178962   0.11560788
635.00   1.98578738   0.11615445
636.00   1.97977582   0.11670272
637.00   1.97375494   0.11725271
638.00   1.96772474   0.11780443
639.00   1.96168523   0.11835786
640.00   1.95563639   0.11891302
641.00   1.94957824   0.11946990
642.00   1.94351077   0.12002851
643.00   1.93743398   0.12058886
644.00   1.93134788   0.12115094
645.00   1.92525246   0.12171476
646.00   1.91914773   0.12228031
647.00   1.91303368   0.12284761
648.00   1.90691033   0.12341666
649.00   1.90077766   0.12398745
650.00   1.89463567   0.12455999
651.00   1.88848438   0.12513429
652.00   1.88232378   0.12571034
653.00   1.87615387   0.12628815
654.00   1.86997464   0.12686772
655.00   1.86378611   0.12744906
656.00   1.85758828   0.12803216
657.00   1.85138113   0.12861703
658.00   1.84516468   0.12920367
659.00   1.83893892   0.12979209
660.00   1.83270386   0.13038228
661.00   1.82645949   0.13097425
662.00   1.82020582   0.13156800
663.00   1.81394285   0.13216354
664.00   1.80767058   0.13276087
665.00   1.80138900   0.13335998
666.00   1.79509812   0.13396089
667.00   1.78879795   0.13456359
668.00   1.78248847   0.13516809
669.00   1.77616969   0.13577439
670.00   1.76984162   0.13638250
671.00   1.76350425   0.13699240
672.00   1.75715758   0.13760412
673.00   1.75080161   0.13821765
674.00   1.74443635   0.13883299
675.00   1.73806180   0.13945015
676.00   1.73167795   0.14006913
677.00   1.72528481   0.14068992
678.00   1.71888237   0.14131254
679.00   1.71247065   0.14193699
680.00   1.70604963   0.14256327
681.00   1.69961932   0.14319138
682.00   1.69317972   0.14382132
683.00   1.68673083   0.14445310
684.00   1.68027266   0.14508672
685.00   1.67380519   0.14572218
686.00   1.66732844   0.14635949
687.00   1.66084241   0.14699864
688.00   1.65434708   0.14763965
689.00   1.64784248   0.14828251
690.00   1.64132858   0.14892722
691.00   1.63480541   0.14957379
692.00   1.62827295   0.15022222
693.00   1.62173121   0.15087251
694.00   1.61518019   0.15152467
695.00   1.60861988   0.15217870
696.00   1.60205030   0.15283460
697.00   1.59547144   0.15349238
698.00   1.58888330   0.15415202
699.00   1.58228588   0.15481355
700.00   1.57567918   0.15547696
701.00   1.56906321   0.15614226
702.00   1.56243796   0.15680944
703.00   1.55580344   0.15747851
704.00   1.54915964   0.15814947
705.00   1.54250657   0.15882232
706.00   1.53584422   0.15949708
707.00   1.52917261   0.16017373
708.00   1.52249172   0.16085228
709.00   1.51580156   0.16153274
710.00   1.50910213   0.16221511
711.00   1.50239343   0.16289939
712.00   1.49567547   0.16358558
713.00   1.48894823   0.16427368
714.00   1.48221173   0.16496371
715.00   1.47546596   0.16565565
716.00   1.46871093   0.16634952
717.00   1.46194663   0.16704531
718.00   1.45517307   0.16774304
719.00   1.44839024   0.16844269
720.00   1.44159815   0.16914428
721.00   1.43479680   0.16984780
722.00   1.42798619   0.17055326
723.00   1.42116632   0.17126066
724.00   1.41433719   0.17197001
725.00   1.40749880   0.17268130
726.00   1.40065115   0.17339455
727.00   1.39379424   0.17410974
728.00   1.38692808   0.17482689
729.00   1.38005266   0.17554600
730.00   1.37316798   0.17626706
731.00   1.36627405   0.17699009
732.00   1.35937087   0.17771508
733.00   1.35245843   0.17844204
734.00   1.34553674   0.17917097
735.00   1.33860580   0.17990188
736.00   1.33166561   0.18063476
737.00   1.32471617   0.18136961
738.00   1.31775747   0.18210645
739.00   1.31078954   0.18284527
740.00   1.30381235   0.18358607
741.00   1.29682591   0.18432887
742.00   1.28983023   0.18507365
743.00   1.28282530   0.18582043
744.00   1.27581113   0.18656920
745.00   1.26878772   0.18731998
746.00   1.26175506   0.18807275
747.00   1.25471316   0.18882753
748.00   1.24766201   0.18958431
749.00   1.24060163   0.19034311
750.00   1.23353200   0.19110391
751.00   1.22645314   0.19186673
752.00   1.21936504   0.19263156
753.00   1.21226770   0.19339842
754.00   1.20516112   0.19416730
755.00   1.19804530   0.19493820
756.00   1.19092025   0.19571113
757.00   1.18378597   0.19648609
758.00   1.17664245   0.19726308
759.00   1.16948970   0.19804210
760.00   1.16232771   0.19882317
761.00   1.15515649   0.19960627
762.00   1.14797605   0.20039142
763.00   1.14078637   0.20117861
764.00   1.13358746   0.20196785
765.00   1.12637932   0.20275914
766.00   1.11916196   0.20355248
767.00   1.11193537   0.20434788
768.00   1.10469955   0.20514534
769.00   1.09745450   0.20594485
770.00   1.09020023   0.20674644
771.00   1.08293674   0.20755008
772.00   1.07566403   0.20835580
773.00   1.06838209   0.20916359
774.00   1.06109093   0.20997345
775.00   1.05379054   0.21078538
776.00   1.04648094   0.21159940
777.00   1.03916212   0.21241550
778.00   1.03183408   0.21323368
779.00   1.02449683   0.21405395
780.00   1.01715035   0.21487631
781.00   1.00979466   0.21570076
782.00   1.00242976   0.21652730
783.00   0.99505564   0.21735594
784.00   0.98767230   0.21818668
785.00   0.98027975   0.21901952
786.00   0.97287800   0.21985447
787.00   0.96546702   0.22069153
788.00   0.95804684   0.22153069
789.00   0.95061745   0.22237197
790.00   0.94317885   0.22321536
791.00   0.93573104   0.22406087
792.00   0.92827403   0.22490850
793.00   0.92080781   0.22575826
794.00   0.91333238   0.22661014
795.00   0.90584774   0.22746414
796.00   0.89835391   0.22832028
797.00   0.89085087   0.22917855
798.00   0.88333862   0.23003896
799.00   0.87581718   0.23090150
800.00   0.86828653   0.23176619
801.00   0.86074669   0.23263301
802.00   0.85319764   0.23350199
803.00   0.84563940   0.23437311
804.00   0.83807195   0.23524639
805.00   0.83049532   0.23612182
806.00   0.82290948   0.23699940
807.00   0.81531445   0.23787914
808.00   0.80771023   0.23876105
809.00   0.80009681   0.23964512
810.00   0.79247420   0.24053135
811.00   0.78484239   0.24141976
812.00   0.77720140   0.24231034
813.00   0.76955122   0.24320309
814.00   0.76189184   0.24409801
815.00   0.75422328   0.24499512
816.00   0.74654553   0.24589441
817.00   0.73885859   0.24679589
818.00   0.73116247   0.24769955
819.00   0.72345716   0.24860540
820.00   0.71574266   0.24951344
821.00   0.70801899   0.25042368
822.00   0.70028613   0.25133611
823.00   0.69254408   0.25225075
824.00   0.68479286   0.25316759
825.00   0.67703246   0.25408663
826.00   0.66926287   0.25500788
827.00   0.66148411   0.25593134
828.00   0.65369617   0.25685702
829.00   0.64589905   0.25778491
830.00   0.63809276   0.25871501
831.00   0.63027729   0.25964734
832.00   0.62245265   0.26058189
833.00   0.61461883   0.26151867
834.00   0.60677584   0.26245768
835.00   0.59892368   0.26339891
836.00   0.59106234   0.26434238
837.00   0.58319184   0.26528809
838.00   0.57531217   0.26623603
839.00   0.56742332   0.26718621
840.00   0.55952532   0.26813864
841.00   0.55161814   0.26909332
842.00   0.54370180   0.27005024
843.00   0.53577629   0.27100941
844.00   0.52784162   0.27197084
845.00   0.51989778   0.27293453
846.00   0.51194478   0.27390047
847.00   0.50398262   0.27486867
848.00   0.49601130   0.27583914
849.00   0.48803082   0.27681188
850.00   0.48004118   0.27778688
851.00   0.47204238   0.27876416
852.00   0.46403442   0.27974371
853.00   0.45601731   0.28072554
854.00   0.44799104   0.28170965
855.00   0.43995562   0.28269604
856.00   0.43191104   0.28368471
857.00   0.42385731   0.28467567
858.00   0.41579443   0.28566892
859.00   0.40772239   0.28666446
860.00   0.39964121   0.28766230
861.00   0.39155087   0.28866243
862.00   0.38345139   0.28966487
863.00   0.37534275   0.29066960
864.00   0.36722497   0.29167665
865.00   0.35909805   0.29268600
866.00   0.35096198   0.29369765
867.00   0.34281676   0.29471163
868.00   0.33466240   0.29572791
869.00   0.32649890   0.29674652
870.00   0.31832626   0.29776744
871.00   0.31014447   0.29879069
872.00   0.30195355   0.29981626
873.00   0.29375348   0.30084416
874.00   0.28554428   0.30187439
875.00   0.27732594   0.30290696
876.00   0.26909846   0.30394186
877.00   0.26086185   0.30497909
878.00   0.25261610   0.30601867
879.00   0.24436122   0.30706059
880.00   0.23609721   0.30810486
881.00   0.22782406   0.30915148
882.00   0.21954178   0.31020044
883.00   0.21125037   0.31125176
884.00   0.20294983   0.31230544
885.00   0.19464017   0.31336147
886.00   0.18632137   0.31441986
887.00   0.17799345   0.31548062
888.00   0.16965640   0.31654374
889.00   0.16131023   0.31760924
890.00   0.15295494   0.31867710
891.00   0.14459052   0.31974734
892.00   0.13621697   0.32081995
893.00   0.12783431   0.32189494
894.00   0.11944253   0.32297232
895.00   0.11104162   0.32405207
896.00   0.10263160   0.32513422
897.00   0.09421246   0.32621875
898.00   0.08578420   0.32730567
899.00   0.07734683   0.32839499
900.00   0.06890034   0.32948670
901.00   0.06044473   0.33058082
902.00   0.05198002   0.33167733
903.00   0.04350619   0.33277625
904.00   0.03502325   0.33387757
905.00   0.02653120   0.33498131
906.00   0.01803004   0.33608746
907.00   0.00951977   0.33719602
908.00   0.00100039   0.33830699
909.00  -0.00752810   0.33942039
910.00  -0.01606569   0.34053621
911.00  -0.02461238   0.34165445
912.00  -0.03316818   0.34277512
913.00  -0.04173309   0.34389822
914.00  -0.05030709   0.34502375
915.00  -0.05889020   0.34615171
916.00  -0.06748241   0.34728211
917.00  -0.07608372   0.34841496
918.00  -0.08469412   0.34955024
919.00  -0.09331363   0.35068797
920.00  -0.10194223   0.35182814
921.00  -0.11057993   0.35297077
922.00  -0.11922672   0.35411584
923.00  -0.12788261   0.35526338
924.00  -0.13654758   0.35641337
925.00  -0.14522166   0.35756581
926.00  -0.15390482   0.35872072
927.00  -0.16259707   0.35987810
928.00  -0.17129842   0.36103794
929.00  -0.18000885   0.36220026
930.00  -0.18872837   0.36336504
931.00  -0.19745697   0.36453230
932.00  -0.20619466   0.36570204
933.00  -0.21494144   0.36687426
934.00  -0.22369730   0.36804895
935.00  -0.23246225   0.36922614
936.00  -0.24123627   0.37040581
937.00  -0.25001938   0.37158797
938.00  -0.25881156   0.37277263
939.00  -0.26761283   0.37395978
940.00  -0.27642317   0.37514942
941.00  -0.28524259   0.37634157
942.00  -0.29407109   0.37753622
943.00  -0.30290866   0.37873338
944.00  -0.31175531   0.37993304
945.00  -0.32061103   0.38113521
946.00  -0.32947583   0.38233990
947.00  -0.33834969   0.38354710
948.00  -0.34723263   0.38475681
949.00  -0.35612463   0.38596905
950.00  -0.36502571   0.38718381
951.00  -0.37393585   0.38840110
952.00  -0.38285506   0.38962091
953.00  -0.39178333   0.39084326
954.00  -0.40072067   0.39206813
955.00  -0.40966708   0.39329555
956.00  -0.41862255   0.39452550
957.00  -0.42758707   0.39575799
958.00  -0.43656067   0.39699302
959.00  -0.44554332   0.39823060
960.00  -0.45453503   0.39947072
961.00  -0.46353579   0.40071340
962.00  -0.47254562   0.40195863
963.00  -0.48156450   0.40320641
964.00  -0.49059244   0.40445675
965.00  -0.49962943   0.40570966
966.00  -0.50867547   0.40696512
967.00  -0.51773057   0.40822315
968.00  -0.52679472   0.40948375
969.00  -0.53586792   0.41074692
970.00  -0.54495017   0.41201266
971.00  -0.55404147   0.41328098
972.00  -0.56314181   0.41455188
973.00  -0.57225120   0.41582535
974.00  -0.58136964   0.41710141
975.00  -0.59049712   0.41838005
976.00  -0.59963365   0.41966129
977.00  -0.60877922   0.42094511
978.00  -0.61793383   0.42223152
979.00  -0.62709748   0.42352053
980.00  -0.63627017   0.42481214
981.00  -0.64545190   0.42610635
982.00  -0.65464267   0.42740316
983.00  -0.66384247   0.42870258
984.00  -0.67305131   0.43000461
985.00  -0.68226919   0.43130924
986.00  -0.69149610   0.43261649
987.00  -0.70073204   0.43392635
988.00  -0.70997702   0.43523883
989.00  -0.71923102   0.43655394
990.00  -0.72849406   0.43787166
991.00  -0.73776612   0.43919201
992.00  -0.74704721   0.44051499
993.00  -0.75633733   0.44184060
994.00  -0.76563648   0.44316884
995.00  -0.77494465   0.44449972
996.00  -0.78426184   0.44583323
997.00  -0.79358806   0.44716939
998.00  -0.80292330   0.44850818
999.00  -0.81226756   0.44984963
1000.00  -0.82162084   0.45119372
1001.00  -0.83098314   0.45254046
1002.00  -0.84035446   0.45388985
1003.00  -0.84973480   0.45524190
1004.00  -0.85912415   0.45659661
1005.00  -0.86852251   0.45795398
1006.00  -0.87792989   0.45931400
1007.00  -0.88734629   0.46067670
1008.00  -0.89677169   0.46204206
1009.00  -0.90620611   0.46341010
1010.00  -0.91564954   0.46478080
1011.00  -0.92510197   0.46615418
1012.00  -0.93456342   0.46753024
1013.00  -0.94403387   0.46890898
1014.00  -0.95351332   0.47029040
1015.00  -0.96300179   0.47167451
1016.00  -0.97249925   0.47306130
1017.00  -0.98200572   0.47445079
1018.00  -0.99152119   0.47584296
1019.00  -1.00104566   0.47723783
1020.00  -1.01057914   0.47863540
1021.00  -1.02012161   0.48003567
1022.00  -1.02967308   0.48143865
1023.00  -1.03923354   0.48284432
1024.00  -1.04880300   0.48425271
1025.00  -1.05838146   0.48566380
1026.00  -1.06796891   0.48707761
1027.00  -1.07756535   0.48849413
1028.00  -1.08717079   0.48991337
1029.00  -1.09678521   0.49133533
1030.00  -1.10640863   0.49276001
1031.00  -1.11604103   0.49418741
1032.00  -1.12568243   0.49561755
1033.00  -1.13533280   0.49705041
1034.00  -1.14499217   0.49848600
1035.00  -1.15466052   0.49992433
1036.00  -1.16433785   0.50136540
1037.00  -1.17402416   0.50280921
1038.00  -1.18371946   0.50425576
1039.00  -1.19342374   0.50570505
1040.00  -1.20313699   0.50715709
1041.00  -1.21285923   0.50861188
1042.00  -1.22259044   0.51006942
1043.00  -1.23233063   0.51152972
1044.00  -1.24207980   0.51299277
1045.00  -1.25183793   0.51445858
1046.00  -1.26160505   0.51592716
1047.00  -1.27138113   0.51739850
1048.00  -1.28116618   0.51887260
1049.00  -1.29096021   0.52034948
1050.00  -1.30076320   0.52182912
1051.00  -1.31057517   0.52331154
1052.00  -1.32039610   0.52479674
1053.00  -1.33022599   0.52628472
1054.00  -1.34006485   0.52777548
1055.00  -1.34991268   0.52926902
1056.00  -1.35976946   0.53076535
1057.00  -1.36963521   0.53226447
1058.00  -1.37950992   0.53376638
1059.00  -1.38939359   0.53527108
1060.00  -1.39928622   0.53677858
1061.00  -1.40918781   0.53828888
1062.00  -1.41909835   0.53980198
1063.00  -1.42901785   0.54131788
1064.00  -1.43894630   0.54283659
1065.00  -1.44888370   0.54435811
1066.00  -1.45883006   0.54588244
1067.00  -1.46878537   0.54740958
1068.00  -1.47874963   0.54893954
1069.00  -1.48872284   0.55047232
1070.00  -1.49870499   0.55200792
1071.00  -1.50869610   0.55354634
1072.00  -1.51869615   0.55508759
1073.00  -1.52870514   0.55663167
1074.00  -1.53872308   0.55817857
1075.00  -1.54874996   0.55972831
1076.00  -1.55878578   0.56128089
1077.00  -1.56883055   0.56283631
1078.00  -1.57888425   0.56439456
1079.00  -1.58894689   0.56595566
1080.00  -1.59901847   0.56751960
1081.00  -1.60909899   0.56908640
1082.00  -1.61918844   0.57065604
1083.00  -1.62928682   0.57222853
1084.00  -1.63939414   0.57380388
1085.00  -1.64951039   0.57538209
1086.00  -1.65963557   0.57696316
1087.00  -1.66976968   0.57854709
1088.00  -1.67991272   0.58013389
1089.00  -1.69006469   0.58172355
1090.00  -1.70022558   0.58331609
1091.00  -1.71039540   0.58491149
1092.00  -1.72057415   0.58650977
1093.00  -1.73076182   0.58811093
1094.00  -1.74095841   0.58971497
1095.00  -1.75116392   0.59132189
1096.00  -1.76137835   0.59293170
1097.00  -1.77160170   0.59454439
1098.00  -1.78183397   0.59615997
1099.00  -1.79207516   0.59777845
1100.00  -1.80232526   0.59939982
1101.00  -1.81258428   0.60102408
1102.00  -1.82285221   0.60265125
1103.00  -1.83312905   0.60428131
1104.00  -1.84341481   0.60591428
1105.00  -1.85370947   0.60755016
1106.00  -1.86401305   0.60918895
1107.00  -1.87432553   0.61083065
1108.00  -1.88464692   0.61247526
1109.00  -1.89497722   0.61412279
1110.00  -1.90531642   0.61577324
1111.00  -1.91566452   0.61742660
1112.00  -1.92602153   0.61908290
1113.00  -1.93638744   0.62074212
1114.00  -1.94676225   0.62240426
1115.00  -1.95714596   0.62406934
1116.00  -1.96753857   0.62573735
1117.00  -1.97794008   0.62740830
1118.00  -1.98835048   0.62908219
1119.00  -1.99876977   0.63075902
1120.00  -2.00919797   0.63243879
1121.00  -2.01963505   0.63412150
1122.00  -2.03008102   0.63580717
1123.00  -2.04053589   0.63749578
1124.00  -2.05099965   0.63918735
1125.00  -2.06147229   0.64088187
1126.00  -2.07195382   0.64257935
1127.00  -2.08244424   0.64427979
1128.00  -2.09294354   0.64598319
1129.00  -2.10345173   0.64768956
1130.00  -2.11396880   0.64939890
1131.00  -2.12449475   0.65111121
1132.00  -2.13502959   0.65282648
1133.00  -2.14557330   0.65454474
1134.00  -2.15612589   0.65626597
1135.00  -2.16668736   0.65799018
1136.00  -2.17725770   0.65971737
1137.00  -2.18783692   0.66144754
1138.00  -2.19842501   0.66318071
1139.00  -2.20902198   0.66491686
1140.00  -2.21962782   0.66665600
1141.00  -2.23024253   0.66839814
1142.00  -2.24086610   0.67014328
1143.00  -2.25149855   0.67189141
1144.00  -2.26213986   0.67364255
1145.00  -2.27279004   0.67539669
1146.00  -2.28344909   0.67715383
1147.00  -2.29411700   0.67891399
1148.00  -2.30479377   0.68067715
1149.00  -2.31547940   0.68244333
1150.00  -2.32617389   0.68421253
1151.00  -2.33687725   0.68598474
1152.00  -2.34758946   0.68775997
1153.00  -2.35831053   0.68953823
1154.00  -2.36904045   0.69131951
1155.00  -2.37977923   0.69310382
1156.00  -2.39052686   0.69489116
1157.00  -2.40128335   0.69668154
1158.00  -2.41204868   0.69847495
1159.00  -2.42282287   0.70027139
1160.00  -2.43360591   0.70207088
1161.00  -2.44439779   0.70387341
1162.00  -2.45519852   0.70567898
1163.00  -2.46600810   0.70748760
1164.00  -2.47682652   0.70929928
1165.00  -2.48765379   0.71111400
1166.00  -2.49848989   0.71293178
1167.00  -2.50933484   0.71475261
1168.00  -2.52018863   0.71657651
1169.00  -2.53105126   0.71840346
1170.00  -2.54192272   0.72023348
1171.00  -2.55280302   0.72206657
1172.00  -2.56369216   0.72390272
1173.00  -2.57459013   0.72574195
1174.00  -2.58549694   0.72758425
1175.00  -2.59641257   0.72942963
1176.00  -2.60733704   0.73127808
1177.00  -2.61827034   0.73312962
1178.00  -2.62921246   0.73498424
1179.00  -2.64016342   0.73684194
1180.00  -2.65112319   0.73870274
1181.00  -2.66209180   0.74056662
1182.00  -2.67306923   0.74243360
1183.00  -2.68405548   0.74430367
1184.00  -2.69505055   0.74617684
1185.00  -2.70605444   0.74805311
1186.00  -2.71706715   0.74993248
1187.00  -2.72808868   0.75181496
1188.00  -2.73911903   0.75370055
1189.00  -2.75015819   0.75558924
1190.00  -2.76120617   0.75748105
1191.00  -2.77226296   0.75937597
1192.00  -2.78332856   0.76127401
1193.00  -2.79440298   0.76317516
1194.00  -2.80548620   0.76507944
1195.00  -2.81657824   0.76698685
1196.00  -2.82767908   0.76889738
1197.00  -2.83878872   0.77081104
1198.00  -2.84990717   0.77272783
1199.00  -2.86103443   0.77464775
1200.00  -2.87217049   0.77657081
1201.00  -2.88331535   0.77849701
1202.00  -2.89446901   0.78042635
1203.00  -2.90563147   0.78235883
1204.00  -2.91680273   0.78429446
1205.00  -2.92798279   0.78623324
1206.00  -2.93917164   0.78817516
1207.00  -2.95036929   0.79012024
1208.00  -2.96157573   0.79206848
1209.00  -2.97279096   0.79401987
1210.00  -2.98401499   0.79597442
1211.00  -2.99524780   0.79793213
1212.00  -3.00648940   0.79989301
1213.00  -3.01773979   0.80185706
1214.00  -3.02899897   0.80382427
1215.00  -3.04026693   0.80579466
1216.00  -3.05154368   0.80776822
1217.00  -3.06282920   0.80974496
1218.00  -3.07412352   0.81172488
1219.00  -3.08542661   0.81370798
1220.00  -3.09673848   0.81569426
1221.00  -3.10805912   0.81768373
1222.00  -3.11938855   0.81967638
1223.00  -3.13072675   0.82167223
1224.00  -3.14207373   0.82367127
1225.00  -3.15342948   0.82567351
1226.00  -3.16479400   0.82767894
1227.00  -3.17616729   0.82968758
1228.00  -3.18754935   0.83169942
1229.00  -3.19894018   0.83371446
1230.00  -3.21033978   0.83573271
1231.00  -3.22174814   0.83775417
1232.00  -3.23316527   0.83977884
1233.00  -3.24459116   0.84180673
1234.00  -3.25602582   0.84383783
1235.00  -3.26746924   0.84587216
1236.00  -3.27892141   0.84790970
1237.00  -3.29038235   0.84995047
1238.00  -3.30185204   0.85199446
1239.00  -3.31333049   0.85404169
1240.00  -3.32481770   0.85609214
1241.00  -3.33631366   0.85814583
1242.00  -3.34781837   0.86020276
1243.00  -3.35933183   0.86226292
1244.00  -3.37085405   0.86432633
1245.00  -3.38238501   0.86639297
1246.00  -3.39392472   0.86846286
1247.00  -3.40547318   0.87053600
1248.00  -3.41703038   0.87261240
1249.00  -3.42859633   0.87469204
1250.00  -3.44017103   0.87677494
1251.00  -3.45175446   0.87886109
1252.00  -3.46334663   0.88095050
1253.00  -3.47494755   0.88304318
1254.00  -3.48655720   0.88513912
1255.00  -3.49817559   0.88723833
1256.00  -3.50980272   0.88934080
1257.00  -3.52143858   0.89144655
1258.00  -3.53308317   0.89355557
1259.00  -3.54473650   0.89566787
1260.00  -3.55639856   0.89778344
1261.00  -3.56806934   0.89990230
1262.00  -3.57974886   0.90202444
1263.00  -3.59143710   0.90414987
1264.00  -3.60313407   0.90627858
1265.00  -3.61483977   0.90841058
1266.00  -3.62655418   0.91054588
1267.00  -3.63827732   0.91268447
1268.00  -3.65000919   0.91482635
1269.00  -3.66174977   0.91697154
1270.00  -3.67349907   0.91912003
1271.00  -3.68525708   0.92127182
1272.00  -3.69702382   0.92342692
1273.00  -3.70879927   0.92558533
1274.00  -3.72058343   0.92774705
1275.00  -3.73237631   0.92991209
1276.00  -3.74417789   0.93208044
1277.00  -3.75598819   0.93425211
1278.00  -3.76780720   0.93642710
1279.00  -3.77963491   0.93860541
1280.00  -3.79147133   0.94078705
1281.00  -3.80331646   0.94297201
1282.00  -3.81517029   0.94516031
1283.00  -3.82703282   0.94735194
1284.00  -3.83890405   0.94954690
1285.00  -3.85078398   0.95174520
1286.00  -3.86267262   0.95394684
1287.00  -3.87456995   0.95615182
1288.00  -3.88647597   0.95836015
1289.00  -3.89839069   0.96057182
1290.00  -3.91031411   0.96278684
1291.00  -3.92224622   0.96500521
1292.00  -3.93418702   0.96722694
1293.00  -3.94613651   0.96945202
1294.00  -3.95809469   0.97168046
1295.00  -3.97006156   0.97391226
1296.00  -3.98203711   0.97614742
1297.00  -3.99402135   0.97838595
1298.00  -4.00601427   0.98062784
1299.00  -4.01801587   0.98287311
1300.00  -4.03002616   0.98512175
1301.00  -4.04204513   0.98737376
1302.00  -4.05407277   0.98962915
1303.00  -4.06610910   0.99188792
1304.00  -4.07815410   0.99415007
1305.00  -4.09020777   0.99641560
1306.00  -4.10227012   0.99868452
1307.00  -4.11434114   1.00095683
1308.00  -4.12642084   1.00323253
1309.00  -4.13850920   1.00551162
1310.00  -4.15060623   1.00779411
1311.00  -4.16271193   1.01007999
1312.00  -4.17482630   1.01236928
1313.00  -4.18694933   1.01466197
1314.00  -4.19908102   1.01695806
1315.00  -4.21122138   1.01925756
1316.00  -4.22337040   1.02156047
1317.00  -4.23552807   1.02386679
1318.00  -4.24769441   1.02617653
1319.00  -4.25986941   1.02848968
1320.00  -4.27205306   1.03080625
1321.00  -4.28424536   1.03312624
1322.00  -4.29644632   1.03544966
1323.00  -4.30865593   1.03777650
1324.00  -4.32087419   1.04010677
1325.00  -4.33310111   1.04244046
1326.00  -4.34533667   1.04477760
1327.00  -4.35758088   1.04711816
1328.00  -4.36983373   1.04946217
1329.00  -4.38209523   1.05180961
1330.00  -4.39436537   1.05416050
1331.00  -4.40664415   1.05651483
1332.00  -4.41893158   1.05887260
1333.00  -4.43122764   1.06123383
1334.00  -4.44353235   1.06359850
1335.00  -4.45584569   1.06596663
1336.00  -4.46816766   1.06833822
1337.00  -4.48049827   1.07071326
1338.00  -4.49283751   1.07309177
1339.00  -4.50518539   1.07547373
1340.00  -4.51754189   1.07785916
1341.00  -4.52990703   1.08024806
1342.00  -4.54228079   1.08264043
1343.00  -4.55466318   1.08503627
1344.00  -4.56705419   1.08743559
1345.00  -4.57945383   1.08983838
1346.00  -4.59186209   1.09224465
1347.00  -4.60427898   1.09465440
1348.00  -4.61670448   1.09706764
1349.00  -4.62913860   1.09948436
1350.00  -4.64158134   1.10190457
1351.00  -4.65403270   1.10432827
1352.00  -4.66649267   1.10675546
1353.00  -4.67896125   1.10918615
1354.00  -4.69143845   1.11162033
1355.00  -4.70392426   1.11405802
1356.00  -4.71641868   1.11649920
1357.00  -4.72892170   1.11894389
1358.00  -4.74143334   1.12139209
1359.00  -4.75395358   1.12384379
1360.00  -4.76648242   1.12629901
1361.00  -4.77901987   1.12875774
1362.00  -4.79156592   1.13121999
1363.00  -4.80412057   1.13368575
1364.00  -4.81668382   1.13615503
1365.00  -4.82925567   1.13862784
1366.00  -4.84183611   1.14110417
1367.00  -4.85442515   1.14358403
1368.00  -4.86702278   1.14606742
1369.00  -4.87962901   1.14855434
1370.00  -4.89224383   1.15104479
1371.00  -4.90486724   1.15353878
1372.00  -4.91749924   1.15603631
1373.00  -4.93013982   1.15853738
1374.00  -4.94278899   1.16104199
1375.00  -4.95544675   1.16355015
1376.00  -4.96811309   1.16606186
1377.00  -4.98078801   1.16857712
1378.00  -4.99347151   1.17109592
1379.00  -5.00616360   1.17361829
1380.00  -5.01886426   1.17614421
1381.00  -5.03157350   1.17867369
1382.00  -5.04429131   1.18120673
1383.00  -5.05701770   1.18374333
1384.00  -5.06975266   1.18628350
1385.00  -5.08249619   1.18882724
1386.00  -5.09524830   1.19137455
1387.00  -5.10800897   1.19392544
1388.00  -5.12077821   1.19647989
1389.00  -5.13355602   1.19903793
1390.00  -5.14634239   1.20159954
1391.00  -5.15913732   1.20416474
1392.00  -5.17194082   1.20673352
1393.00  -5.18475288   1.20930589
1394.00  -5.19757350   1.21188185
1395.00  -5.21040268   1.21446140
1396.00  -5.22324041   1.21704454
1397.00  -5.23608670   1.21963127
1398.00  -5.24894155   1.22222161
1399.00  -5.26180494   1.22481554
1400.00  -5.27467689   1.22741308
1401.00  -5.28755739   1.23001423
1402.00  -5.30044644   1.23261898
1403.00  -5.31334404   1.23522733
1404.00  -5.32625018   1.23783930
1405.00  -5.33916487   1.24045489
1406.00  -5.35208810   1.24307409
1407.00  -5.36501988   1.24569691
1408.00  -5.37796019   1.24832335
1409.00  -5.39090905   1.25095341
1410.00  -5.40386644   1.25358710
1411.00  -5.41683237   1.25622441
1412.00  -5.42980684   1.25886536
1413.00  -5.44278984   1.26150994
1414.00  -5.45578137   1.26415815
1415.00  -5.46878144   1.26680999
1416.00  -5.48179003   1.26946548
1417.00  -5.49480716   1.27212461
1418.00  -5.50783281   1.27478738
1419.00  -5.52086699   1.27745380
1420.00  -5.53390969   1.28012386
1421.00  -5.54696092   1.28279758
1422.00  -5.56002067   1.28547494
1423.00  -5.57308894   1.28815596
1424.00  -5.58616573   1.29084064
1425.00  -5.59925103   1.29352898
1426.00  -5.61234486   1.29622098
1427.00  -5.62544720   1.29891664
1428.00  -5.63855805   1.30161597
1429.00  -5.65167742   1.30431897
1430.00  -5.66480529   1.30702563
1431.00  -5.67794168   1.30973597
1432.00  -5.69108658   1.31244999
1433.00  -5.70423998   1.31516768
1434.00  -5.71740189   1.31788905
1435.00  -5.73057230   1.32061410
1436.00  -5.74375122   1.32334284
1437.00  -5.75693864   1.32607526
1438.00  -5.77013456   1.32881138
1439.00  -5.78333898   1.33155118
1440.00  -5.79655189   1.33429467
1441.00  -5.80977330   1.33704186
1442.00  -5.82300321   1.33979275
1443.00  -5.83624161   1.34254734
1444.00  -5.84948851   1.34530563
1445.00  -5.86274389   1.34806762
1446.00  -5.87600776   1.35083332
1447.00  -5.88928012   1.35360273
1448.00  -5.90256097   1.35637585
1449.00  -5.91585030   1.35915268
1450.00  -5.92914812   1.36193323
1451.00  -5.94245442   1.36471749
1452.00  -5.95576920   1.36750548
1453.00  -5.96909246   1.37029719
1454.00  -5.98242420   1.37309262
1455.00  -5.99576442   1.37589178
1456.00  -6.00911311   1.37869466
1457.00  -6.02247028   1.38150128
1458.00  -6.03583592   1.38431163
1459.00  -6.04921003   1.38712572
1460.00  -6.06259261   1.38994355
1461.00  -6.07598366   1.39276511
1462.00  -6.08938318   1.39559042
1463.00  -6.10279116   1.39841947
1464.00  -6.11620761   1.40125227
1465.00  -6.12963252   1.40408881
1466.00  -6.14306589   1.40692911
1467.00  -6.15650772   1.40977316
1468.00  -6.16995802   1.41262097
1469.00  -6.18341677   1.41547254
1470.00  -6.19688397   1.41832786
1471.00  -6.21035963   1.42118695
1472.00  -6.22384375   1.42404980
1473.00  -6.23733632   1.42691642
1474.00  -6.25083733   1.42978681
1475.00  -6.26434680   1.43266097
1476.00  -6.27786472   1.43553890
1477.00  -6.29139108   1.43842061
1478.00  -6.30492589   1.44130609
1479.00  -6.31846914   1.44419536
1480.00  -6.33202083   1.44708841
1481.00  -6.34558096   1.44998524
1482.00  -6.35914954   1.45288586
1483.00  -6.37272655   1.45579027
1484.00  -6.38631200   1.45869847
1485.00  -6.39990588   1.46161046
1486.00  -6.41350820   1.46452625
1487.00  -6.42711895   1.46744584
1488.00  -6.44073813   1.47036923
1489.00  -6.45436574   1.47329642
1490.00  -6.46800178   1.47622741
1491.00  -6.48164625   1.47916221
1492.00  -6.49529914   1.48210082
1493.00  -6.50896045   1.48504324
1494.00  -6.52263019   1.48798948
1495.00  -6.53630835   1.49093953
1496.00  -6.54999493   1.49389340
1497.00  -6.56368993   1.49685108
1498.00  -6.57739335   1.49981259
1499.00  -6.59110518   1.50277793
1500.00  -6.60482542   1.50574709
1501.00  -6.61855408   1.50872008
1502.00  -6.63229115   1.51169690
1503.00  -6.64603663   1.51467755
1504.00  -6.65979052   1.51766204
1505.00  -6.67355281   1.52065037
1506.00  -6.68732351   1.52364254
1507.00  -6.70110262   1.52663855
1508.00  -6.71489013   1.52963840
1509.00  -6.72868604   1.53264210
1510.00  -6.74249035   1.53564965
1511.00  -6.75630305   1.53866105
1512.00  -6.77012416   1.54167631
1513.00  -6.78395366   1.54469542
1514.00  -6.79779156   1.54771838
1515.00  -6.81163785   1.55074521
1516.00  -6.82549253   1.55377590
1517.00  -6.83935560   1.55681045
1518.00  -6.85322705   1.55984887
1519.00  -6.86710690   1.56289115
1520.00  -6.88099513   1.56593731
1521.00  -6.89489175   1.56898734
1522.00  -6.90879675   1.57204125
1523.00  -6.92271013   1.57509903
1524.00  -6.93663189   1.57816069
1525.00  -6.95056203   1.58122624
1526.00  -6.96450055   1.58429566
1527.00  -6.97844744   1.58736898
1528.00  -6.99240271   1.59044618
1529.00  -7.00636635   1.59352727
1530.00  -7.02033836   1.59661226
1531.00  -7.03431874   1.59970114
1532.00  -7.04830749   1.60279392
1533.00  -7.06230461   1.60589059
1534.00  -7.07631009   1.60899117
1535.00  -7.09032394   1.61209565
1536.00  -7.10434615   1.61520404
1537.00  -7.11837672   1.61831634
1538.00  -7.13241565   1.62143254
1539.00  -7.14646294   1.62455266
1540.00  -7.16051859   1.62767669
1541.00  -7.17458259   1.63080464
1542.00  -7.18865495   1.63393651
1543.00  -7.20273566   1.63707230
1544.00  -7.21682472   1.64021201
1545.00  -7.23092213   1.64335565
1546.00  -7.24502789   1.64650321
1547.00  -7.25914200   1.64965471
1548.00  -7.27326445   1.65281014
1549.00  -7.28739524   1.65596950
1550.00  -7.30153438   1.65913280
1551.00  -7.31568186   1.66230003
1552.00  -7.32983768   1.66547121
1553.00  -7.34400184   1.66864633
1554.00  -7.35817434   1.67182539
1555.00  -7.37235517   1.67500841
1556.00  -7.38654433   1.67819537
1557.00  -7.40074183   1.68138628
1558.00  -7.41494765   1.68458115
1559.00  -7.42916181   1.68777997
1560.00  -7.44338430   1.69098275
1561.00  -7.45761511   1.69418949
1562.00  -7.47185424   1.69740020
1563.00  -7.48610170   1.70061486
1564.00  -7.50035749   1.70383350
1565.00  -7.51462159   1.70705610
1566.00  -7.52889401   1.71028268
1567.00  -7.54317475   1.71351322
1568.00  -7.55746381   1.71674775
1569.00  -7.57176118   1.71998625
1570.00  -7.58606687   1.72322873
1571.00  -7.60038087   1.72647519
1572.00  -7.61470317   1.72972564
1573.00  -7.62903379   1.73298007
1574.00  -7.64337272   1.73623849
1575.00  -7.65771995   1.73950090
1576.00  -7.67207548   1.74276731
1577.00  -7.68643932   1.74603771
1578.00  -7.70081146   1.74931210
1579.00  -7.71519190   1.75259050
1580.00  -7.72958064   1.75587290
1581.00  -7.74397768   1.75915930
1582.00  -7.75838301   1.76244970
1583.00  -7.77279664   1.76574412
1584.00  -7.78721856   1.76904254
1585.00  -7.80164877   1.77234498
1586.00  -7.81608727   1.77565143
1587.00  -7.83053406   1.77896189
1588.00  -7.84498914   1.78227638
1589.00  -7.85945250   1.78559488
1590.00  -7.87392414   1.78891741
1591.00  -7.88840407   1.79224397
1592.00  -7.90289228   1.79557455
1593.00  -7.91738877   1.79890916
1594.00  -7.93189354   1.80224780
1595.00  -7.94640658   1.80559048
1596.00  -7.96092790   1.80893719
1597.00  -7.97545749   1.81228794
1598.00  -7.98999536   1.81564273
1599.00  -8.00454149   1.81900156
1600.00  -8.01909590   1.82236443
1601.00  -8.03365857   1.82573135
1602.00  -8.04822951   1.82910233
1603.00  -8.06280871   1.83247735
1604.00  -8.07739618   1.83585642
1605.00  -8.09199191   1.83923955
1606.00  -8.10659590   1.84262674
1607.00  -8.12120814   1.84601798
1608.00  -8.13582865   1.84941329
1609.00  -8.15045741   1.85281266
1610.00  -8.16509442   1.85621610
1611.00  -8.17973969   1.85962360
1612.00  -8.19439321   1.86303518
1613.00  -8.20905498   1.86645083
1614.00  -8.22372500   1.86987055
1615.00  -8.23840326   1.87329434
1616.00  -8.25308977   1.87672222
1617.00  -8.26778452   1.88015418
1618.00  -8.28248752   1.88359022
1619.00  -8.29719875   1.88703034
1620.00  -8.31191823   1.89047455
1621.00  -8.32664594   1.89392285
1622.00  -8.34138189   1.89737525
1623.00  -8.35612607   1.90083173
1624.00  -8.37087849   1.90429231
1625.00  -8.38563914   1.90775699
1626.00  -8.40040802   1.91122577
1627.00  -8.41518513   1.91469865
1628.00  -8.42997046   1.91817564
1629.00  -8.44476402   1.92165673
1630.00  -8.45956581   1.92514193
1631.00  -8.47437582   1.92863124
1632.00  -8.48919404   1.93212466
1633.00  -8.50402049   1.93562220
1634.00  -8.51885516   1.93912385
1635.00  -8.53369804   1.94262962
1636.00  -8.54854914   1.94613952
1637.00  -8.56340846   1.94965353
1638.00  -8.57827598   1.95317168
1639.00  -8.59315172   1.95669395
1640.00  -8.60803566   1.96022035
1641.00  -8.62292781   1.96375088
1642.00  -8.63782817   1.96728554
1643.00  -8.65273674   1.97082434
1644.00  -8.66765350   1.97436728
1645.00  -8.68257847   1.97791436
1646.00  -8.69751164   1.98146558
1647.00  -8.71245300   1.98502095
1648.00  -8.72740257   1.98858046
1649.00  -8.74236033   1.99214412
1650.00  -8.75732628   1.99571193
1651.00  -8.77230042   1.99928389
1652.00  -8.78728276   2.00286001
1653.00  -8.80227329   2.00644029
1654.00  -8.81727200   2.01002472
1655.00  -8.83227890   2.01361332
1656.00  -8.84729398   2.01720608
1657.00  -8.86231725   2.02080300
1658.00  -8.87734870   2.02440409
1659.00  -8.89238833   2.02800936
1660.00  -8.90743614   2.03161879
1661.00  -8.92249212   2.03523240
1662.00  -8.93755628   2.03885018
1663.00  -8.95262862   2.04247214
1664.00  -8.96770913   2.04609828
1665.00  -8.98279781   2.04972861
1666.00  -8.99789465   2.05336311
1667.00  -9.01299967   2.05700181
1668.00  -9.02811285   2.06064469
1669.00  -9.04323420   2.06429177
1670.00  -9.05836371   2.06794303
1671.00  -9.07350138   2.07159849
1672.00  -9.08864722   2.07525815
1673.00  -9.10380121   2.07892201
1674.00  -9.11896336   2.08259006
1675.00  -9.13413366   2.08626233
1676.00  -9.14931212   2.08993879
1677.00  -9.16449873   2.09361947
1678.00  -9.17969350   2.09730435
1679.00  -9.19489641   2.10099344
1680.00  -9.21010747   2.10468675
1681.00  -9.22532667   2.10838428
1682.00  -9.24055403   2.11208602
1683.00  -9.25578952   2.11579198
1684.00  -9.27103316   2.11950216
1685.00  -9.28628493   2.12321657
1686.00  -9.30154485   2.12693520
1687.00  -9.31681290   2.13065807
1688.00  -9.33208909   2.13438516
1689.00  -9.34737341   2.13811648
1690.00  -9.36266587   2.14185204
1691.00  -9.37796645   2.14559184
1692.00  -9.39327517   2.14933587
1693.00  -9.40859201   2.15308415
1694.00  -9.42391698   2.15683667
1695.00  -9.43925007   2.16059343
1696.00  -9.45459129   2.16435444
1697.00  -9.46994063   2.16811970
1698.00  -9.48529809   2.17188921
1699.00  -9.50066366   2.17566297
1700.00  -9.51603736   2.17944099
1701.00  -9.53141917   2.18322326
1702.00  -9.54680909   2.18700980
1703.00  -9.56220713   2.19080059
1704.00  -9.57761328   2.19459565
1705.00  -9.59302753   2.19839498
1706.00  -9.60844989   2.20219857
1707.00  -9.62388036   2.20600644
1708.00  -9.63931894   2.20981857
1709.00  -9.65476561   2.21363498
1710.00  -9.67022039   2.21745566
1711.00  -9.68568327   2.22128063
1712.00  -9.70115425   2.22510987
1713.00  -9.71663332   2.22894339
1714.00  -9.73212049   2.23278120
1715.00  -9.74761575   2.23662330
1716.00  -9.76311910   2.24046968
1717.00  -9.77863055   2.24432036
1718.00  -9.79415008   2.24817532
1719.00  -9.80967770   2.25203458
1720.00  -9.82521341   2.25589814
1721.00  -9.84075720   2.25976600
1722.00  -9.85630907   2.26363816
1723.00  -9.87186902   2.26751462
1724.00  -9.88743706   2.27139538
1725.00  -9.90301317   2.27528045
1726.00  -9.91859735   2.27916983
1727.00  -9.93418962   2.28306352
1728.00  -9.94978995   2.28696153
1729.00  -9.96539836   2.29086385
1730.00  -9.98101483   2.29477048
1731.00  -9.99663938   2.29868144
1732.00 -10.01227199   2.30259672
1733.00 -10.02791267   2.30651632
1734.00 -10.04356141   2.31044024
1735.00 -10.05921821   2.31436850
1736.00 -10.07488307   2.31830108
1737.00 -10.09055600   2.32223799
1738.00 -10.10623698   2.32617924
1739.00 -10.12192601   2.33012483
1740.00 -10.13762310   2.33407475
1741.00 -10.15332824   2.33802901
1742.00 -10.16904144   2.34198761
1743.00 -10.18476268   2.34595056
1744.00 -10.20049197   2.34991785
1745.00 -10.21622930   2.35388949
1746.00 -10.23197468   2.35786548
1747.00 -10.24772811   2.36184582
1748.00 -10.26348957   2.36583052
1749.00 -10.27925908   2.36981957
1750.00 -10.29503662   2.37381298
1751.00 -10.31082220   2.37781075
1752.00 -10.32661582   2.38181288
1753.00 -10.34241747   2.38581938
1754.00 -10.35822715   2.38983024
1755.00 -10.37404486   2.39384547
1756.00 -10.38987060   2.39786507
1757.00 -10.40570437   2.40188904
1758.00 -10.42154616   2.40591739
1759.00 -10.43739598   2.40995012
1760.00 -10.45325382   2.41398722
1761.00 -10.46911968   2.41802870
1762.00 -10.48499356   2.42207457
1763.00 -10.50087545   2.42612482
1764.00 -10.51676537   2.43017945
1765.00 -10.53266329   2.43423848
1766.00 -10.54856923   2.43830190
1767.00 -10.56448318   2.44236970
1768.00 -10.58040514   2.44644191
1769.00 -10.59633511   2.45051851
1770.00 -10.61227309   2.45459951
1771.00 -10.62821907   2.45868490
1772.00 -10.64417305   2.46277471
1773.00 -10.66013503   2.46686891
1774.00 -10.67610502   2.47096753
1775.00 -10.69208300   2.47507055
1776.00 -10.70806898   2.47917798
1777.00 -10.72406296   2.48328983
1778.00 -10.74006492   2.48740609
1779.00 -10.75607488   2.49152677
1780.00 -10.77209283   2.49565186
1781.00 -10.78811877   2.49978138
1782.00 -10.80415270   2.50391532
1783.00 -10.82019461   2.50805369
1784.00 -10.83624451   2.51219648
1785.00 -10.85230238   2.51634370
1786.00 -10.86836824   2.52049535
1787.00 -10.88444208   2.52465144
1788.00 -10.90052389   2.52881196
1789.00 -10.91661368   2.53297692
1790.00 -10.93271145   2.53714631
1791.00 -10.94881719   2.54132015
1792.00 -10.96493089   2.54549843
1793.00 -10.98105257   2.54968116
1794.00 -10.99718222   2.55386833
1795.00 -11.01331983   2.55805995
1796.00 -11.02946540   2.56225602
1797.00 -11.04561894   2.56645655
1798.00 -11.06178044   2.57066153
1799.00 -11.07794990   2.57487097
1800.00 -11.09412732   2.57908487
1801.00 -11.11031269   2.58330322
1802.00 -11.12650602   2.58752605
1803.00 -11.14270730   2.59175333
1804.00 -11.15891654   2.59598509
1805.00 -11.17513372   2.60022131
1806.00 -11.19135885   2.60446200
1807.00 -11.20759193   2.60870717
1808.00 -11.22383295   2.61295681
1809.00 -11.24008192   2.61721093
1810.00 -11.25633882   2.62146953
1811.00 -11.27260367   2.62573261
1812.00 -11.28887646   2.63000017
1813.00 -11.30515718   2.63427222
1814.00 -11.32144584   2.63854875
1815.00 -11.33774243   2.64282978
1816.00 -11.35404696   2.64711529
1817.00 -11.37035941   2.65140530
1818.00 -11.38667979   2.65569980
1819.00 -11.40300810   2.65999880
1820.00 -11.41934434   2.66430230
1821.00 -11.43568850   2.66861030
1822.00 -11.45204058   2.67292280
1823.00 -11.46840058   2.67723981
1824.00 -11.48476850   2.68156133
1825.00 -11.50114434   2.68588735
1826.00 -11.51752809   2.69021788
1827.00 -11.53391976   2.69455293
1828.00 -11.55031934   2.69889249
1829.00 -11.56672683   2.70323657
1830.00 -11.58314223   2.70758517
1831.00 -11.59956553   2.71193829
1832.00 -11.61599675   2.71629593
1833.00 -11.63243586   2.72065810
1834.00 -11.64888288   2.72502479
1835.00 -11.66533780   2.72939601
1836.00 -11.68180062   2.73377176
1837.00 -11.69827134   2.73815205
1838.00 -11.71474995   2.74253687
1839.00 -11.73123645   2.74692623
1840.00 -11.74773085   2.75132012
1841.00 -11.76423314   2.75571856
1842.00 -11.78074332   2.76012154
1843.00 -11.79726139   2.76452906
1844.00 -11.81378734   2.76894113
1845.00 -11.83032118   2.77335775
1846.00 -11.84686290   2.77777891
1847.00 -11.86341250   2.78220463
1848.00 -11.87996998   2.78663491
1849.00 -11.89653534   2.79106974
1850.00 -11.91310857   2.79550913
1851.00 -11.92968968   2.79995308
1852.00 -11.94627866   2.80440159
1853.00 -11.96287551   2.80885467
1854.00 -11.97948024   2.81331231
1855.00 -11.99609282   2.81777452
1856.00 -12.01271328   2.82224130
1857.00 -12.02934160   2.82671266
1858.00 -12.04597778   2.83118858
1859.00 -12.06262183   2.83566908
1860.00 -12.07927373   2.84015417
1861.00 -12.09593349   2.84464383
1862.00 -12.11260111   2.84913807
1863.00 -12.12927658   2.85363689
1864.00 -12.14595991   2.85814031
1865.00 -12.16265108   2.86264831
1866.00 -12.17935011   2.86716090
1867.00 -12.19605698   2.87167808
1868.00 -12.21277170   2.87619985
1869.00 -12.22949426   2.88072622
1870.00 -12.24622467   2.88525719
1871.00 -12.26296292   2.88979275
1872.00 -12.27970901   2.89433292
1873.00 -12.29646293   2.89887769
1874.00 -12.31322469   2.90342707
1875.00 -12.32999429   2.90798106
1876.00 -12.34677172   2.91253965
1877.00 -12.36355698   2.91710285
1878.00 -12.38035007   2.92167067
1879.00 -12.39715099   2.92624310
1880.00 -12.41395973   2.93082015
1881.00 -12.43077630   2.93540182
1882.00 -12.44760069   2.93998811
1883.00 -12.46443290   2.94457902
1884.00 -12.48127293   2.94917456
1885.00 -12.49812078   2.95377472
1886.00 -12.51497645   2.95837951
1887.00 -12.53183993   2.96298893
1888.00 -12.54871122   2.96760299
1889.00 -12.56559032   2.97222168
1890.00 -12.58247724   2.97684500
1891.00 -12.59937196   2.98147297
1892.00 -12.61627448   2.98610557
1893.00 -12.63318482   2.99074282
1894.00 -12.65010295   2.99538471
1895.00 -12.66702888   3.00003124
1896.00 -12.68396262   3.00468243
1897.00 -12.70090415   3.00933826
1898.00 -12.71785348   3.01399875
1899.00 -12.73481060   3.01866389
1900.00 -12.75177552   3.02333368
1901.00 -12.76874822   3.02800813
1902.00 -12.78572872   3.03268725
1903.00 -12.80271700   3.03737102
1904.00 -12.81971307   3.04205946
1905.00 -12.83671692   3.04675256
1906.00 -12.85372855   3.05145033
1907.00 -12.87074797   3.05615277
1908.00 -12.88777516   3.06085988
1909.00 -12.90481014   3.06557166
1910.00 -12.92185289   3.07028812
1911.00 -12.93890341   3.07500925
1912.00 -12.95596170   3.07973506
1913.00 -12.97302777   3.08446556
1914.00 -12.99010160   3.08920073
1915.00 -13.00718320   3.09394059
1916.00 -13.02427257   3.09868514
1917.00 -13.04136970   3.10343438
1918.00 -13.05847459   3.10818830
1919.00 -13.07558724   3.11294692
1920.00 -13.09270766   3.11771023
1921.00 -13.10983582   3.12247824
1922.00 -13.12697175   3.12725095
1923.00 -13.14411543   3.13202835
1924.00 -13.16126686   3.13681046
1925.00 -13.17842604   3.14159727
1926.00 -13.19559297   3.14638879
1927.00 -13.21276764   3.15118501
1928.00 -13.22995006   3.15598594
1929.00 -13.24714023   3.16079159
1930.00 -13.26433813   3.16560195
1931.00 -13.28154378   3.17041702
1932.00 -13.29875717   3.17523681
1933.00 -13.31597829   3.18006132
1934.00 -13.33320714   3.18489055
1935.00 -13.35044373   3.18972450
1936.00 -13.36768805   3.19456318
1937.00 -13.38494011   3.19940658
1938.00 -13.40219988   3.20425471
1939.00 -13.41946739   3.20910757
1940.00 -13.43674262   3.21396517
1941.00 -13.45402557   3.21882749
1942.00 -13.47131625   3.22369456
1943.00 -13.48861464   3.22856636
1944.00 -13.50592076   3.23344290
1945.00 -13.52323458   3.23832419
1946.00 -13.54055613   3.24321021
1947.00 -13.55788538   3.24810098
1948.00 -13.57522235   3.25299650
1949.00 -13.59256702   3.25789677
1950.00 -13.60991941   3.26280179
1951.00 -13.62727950   3.26771157
1952.00 -13.64464729   3.27262609
1953.00 -13.66202279   3.27754538
1954.00 -13.67940598   3.28246942
1955.00 -13.69679688   3.28739823
1956.00 -13.71419547   3.29233179
1957.00 -13.73160176   3.29727012
1958.00 -13.74901575   3.30221322
1959.00 -13.76643742   3.30716109
1960.00 -13.78386679   3.31211372
1961.00 -13.80130384   3.31707113
1962.00 -13.81874858   3.32203331
1963.00 -13.83620101   3.32700027
1964.00 -13.85366112   3.33197200
1965.00 -13.87112891   3.33694851
1966.00 -13.88860438   3.34192981
1967.00 -13.90608753   3.34691588
1968.00 -13.92357836   3.35190675
1969.00 -13.94107686   3.35690240
1970.00 -13.95858304   3.36190284
1971.00 -13.97609688   3.36690806
1972.00 -13.99361840   3.37191809
1973.00 -14.01114758   3.37693290
1974.00 -14.02868443   3.38195251
1975.00 -14.04622895   3.38697692
1976.00 -14.06378113   3.39200613
1977.00 -14.08134097   3.39704015
1978.00 -14.09890847   3.40207896
1979.00 -14.11648362   3.40712258
1980.00 -14.13406643   3.41217101
1981.00 -14.15165690   3.41722425
1982.00 -14.16925502   3.42228230
1983.00 -14.18686079   3.42734516
1984.00 -14.20447421   3.43241284
1985.00 -14.22209527   3.43748534
1986.00 -14.23972399   3.44256265
1987.00 -14.25736034   3.44764478
1988.00 -14.27500434   3.45273174
1989.00 -14.29265598   3.45782352
1990.00 -14.31031525   3.46292013
1991.00 -14.32798217   3.46802156
1992.00 -14.34565672   3.47312783
1993.00 -14.36333890   3.47823892
1994.00 -14.38102871   3.48335485
1995.00 -14.39872615   3.48847562
1996.00 -14.41643122   3.49360122
1997.00 -14.43414392   3.49873166
1998.00 -14.45186425   3.50386694
1999.00 -14.46959219   3.50900707
2000.00 -14.48732776   3.51415204
