wavelength(nm)         real         imag
200.00   3.73779559   0.00310002
201.00   3.73617009   0.00314674
202.00   3.73453649   0.00319393
203.00   3.73289480   0.00324159
204.00   3.73124502   0.00328972
205.00   3.72958714   0.00333832
206.00   3.72792117   0.00338740
207.00   3.72624710   0.00343696
208.00   3.72456494   0.00348700
209.00   3.72287468   0.00353752
210.00   3.72117633   0.00358853
211.00   3.71946989   0.00364002
212.00   3.71775535   0.00369201
213.00   3.71603272   0.00374449
214.00   3.71430199   0.00379746
215.00   3.71256318   0.00385093
216.00   3.71081627   0.00390490
217.00   3.70906127   0.00395937
218.00   3.70729817   0.00401434
219.00   3.70552699   0.00406982
220.00   3.70374771   0.00412581
221.00   3.70196034   0.00418231
222.00   3.70016488   0.00423933
223.00   3.69836133   0.00429685
224.00   3.69654968   0.00435490
225.00   3.69472995   0.00441347
226.00   3.69290213   0.00447256
227.00   3.69106621   0.00453217
228.00   3.68922220   0.00459231
229.00   3.68737011   0.00465299
230.00   3.68550992   0.00471419
231.00   3.68364165   0.00477593
232.00   3.68176528   0.00483820
233.00   3.67988083   0.00490101
234.00   3.67798829   0.00496436
235.00   3.67608765   0.00502826
236.00   3.67417893   0.00509270
237.00   3.67226212   0.00515769
238.00   3.67033723   0.00522323
239.00   3.66840424   0.00528933
240.00   3.66646317   0.00535598
241.00   3.66451401   0.00542318
242.00   3.66255676   0.00549095
243.00   3.66059142   0.00555927
244.00   3.65861800   0.00562816
245.00   3.65663649   0.00569762
246.00   3.65464689   0.00576765
247.00   3.65264921   0.00583824
248.00   3.65064344   0.00590941
249.00   3.64862959   0.00598116
250.00   3.64660765   0.00605348
251.00   3.64457763   0.00612639
252.00   3.64253951   0.00619988
253.00   3.64049332   0.00627395
254.00   3.63843904   0.00634861
255.00   3.63637667   0.00642386
256.00   3.63430623   0.00649970
257.00   3.63222769   0.00657613
258.00   3.63014108   0.00665317
259.00   3.62804637   0.00673080
260.00   3.62594359   0.00680903
261.00   3.62383272   0.00688787
262.00   3.62171377   0.00696731
263.00   3.61958674   0.00704736
264.00   3.61745162   0.00712802
265.00   3.61530843   0.00720929
266.00   3.61315715   0.00729118
267.00   3.61099779   0.00737368
268.00   3.60883034   0.00745681
269.00   3.60665482   0.00754055
270.00   3.60447121   0.00762492
271.00   3.60227953   0.00770992
272.00   3.60007976   0.00779555
273.00   3.59787191   0.00788180
274.00   3.59565599   0.00796870
275.00   3.59343198   0.00805622
276.00   3.59119989   0.00814439
277.00   3.58895973   0.00823319
278.00   3.58671148   0.00832264
279.00   3.58445516   0.00841274
280.00   3.58219075   0.00850348
281.00   3.57991827   0.00859487
282.00   3.57763771   0.00868691
283.00   3.57534908   0.00877961
284.00   3.57305236   0.00887296
285.00   3.57074757   0.00896697
286.00   3.56843470   0.00906164
287.00   3.56611375   0.00915698
288.00   3.56378473   0.00925298
289.00   3.56144763   0.00934966
290.00   3.55910246   0.00944700
291.00   3.55674920   0.00954501
292.00   3.55438788   0.00964370
293.00   3.55201847   0.00974307
294.00   3.54964100   0.00984311
295.00   3.54725544   0.00994384
296.00   3.54486182   0.01004526
297.00   3.54246012   0.01014736
298.00   3.54005034   0.01025014
299.00   3.53763249   0.01035362
300.00   3.53520657   0.01045780
301.00   3.53277257   0.01056267
302.00   3.53033051   0.01066823
303.00   3.52788036   0.01077450
304.00   3.52542215   0.01088147
305.00   3.52295586   0.01098915
306.00   3.52048151   0.01109753
307.00   3.51799908   0.01120662
308.00   3.51550858   0.01131643
309.00   3.51301000   0.01142695
310.00   3.51050336   0.01153818
311.00   3.50798865   0.01165014
312.00   3.50546586   0.01176281
313.00   3.50293501   0.01187621
314.00   3.50039609   0.01199033
315.00   3.49784909   0.01210519
316.00   3.49529403   0.01222077
317.00   3.49273090   0.01233709
318.00   3.49015970   0.01245414
319.00   3.48758043   0.01257193
320.00   3.48499310   0.01269046
321.00   3.48239769   0.01280973
322.00   3.47979422   0.01292974
323.00   3.47718268   0.01305050
324.00   3.47456308   0.01317201
325.00   3.47193540   0.01329427
326.00   3.46929967   0.01341729
327.00   3.46665586   0.01354106
328.00   3.46400399   0.01366559
329.00   3.46134405   0.01379088
330.00   3.45867605   0.01391693
331.00   3.45599999   0.01404374
332.00   3.45331586   0.01417133
333.00   3.45062366   0.01429968
334.00   3.44792340   0.01442881
335.00   3.44521508   0.01455871
336.00   3.44249870   0.01468938
337.00   3.43977425   0.01482084
338.00   3.43704173   0.01495307
339.00   3.43430116   0.01508609
340.00   3.43155252   0.01521990
341.00   3.42879582   0.01535449
342.00   3.42603106   0.01548988
343.00   3.42325824   0.01562605
344.00   3.42047736   0.01576302
345.00   3.41768842   0.01590079
346.00   3.41489141   0.01603936
347.00   3.41208635   0.01617873
348.00   3.40927323   0.01631890
349.00   3.40645204   0.01645988
350.00   3.40362280   0.01660167
351.00   3.40078550   0.01674427
352.00   3.39794014   0.01688768
353.00   3.39508672   0.01703191
354.00   3.39222525   0.01717696
355.00   3.38935571   0.01732283
356.00   3.38647812   0.01746952
357.00   3.38359247   0.01761703
358.00   3.38069877   0.01776537
359.00   3.37779701   0.01791454
360.00   3.37488719   0.01806455
361.00   3.37196932   0.01821538
362.00   3.36904339   0.01836706
363.00   3.36610941   0.01851957
364.00   3.36316737   0.01867292
365.00   3.36021728   0.01882712
366.00   3.35725913   0.01898216
367.00   3.35429293   0.01913805
368.00   3.35131867   0.01929478
369.00   3.34833637   0.01945238
370.00   3.34534601   0.01961082
371.00   3.34234759   0.01977013
372.00   3.33934113   0.01993029
373.00   3.33632661   0.02009131
374.00   3.33330404   0.02025320
375.00   3.33027343   0.02041595
376.00   3.32723475   0.02057958
377.00   3.32418803   0.02074407
378.00   3.32113326   0.02090944
379.00   3.31807044   0.02107568
380.00   3.31499957   0.02124280
381.00   3.31192065   0.02141080
382.00   3.30883368   0.02157968
383.00   3.30573867   0.02174945
384.00   3.30263560   0.02192010
385.00   3.29952449   0.02209164
386.00   3.29640533   0.02226407
387.00   3.29327812   0.02243740
388.00   3.29014287   0.02261162
389.00   3.28699956   0.02278675
390.00   3.28384822   0.02296277
391.00   3.28068882   0.02313969
392.00   3.27752139   0.02331752
393.00   3.27434590   0.02349626
394.00   3.27116237   0.02367591
395.00   3.26797080   0.02385647
396.00   3.26477118   0.02403794
397.00   3.26156352   0.02422033
398.00   3.25834782   0.02440364
399.00   3.25512407   0.02458787
400.00   3.25189228   0.02477303
401.00   3.24865245   0.02495911
402.00   3.24540458   0.02514612
403.00   3.24214866   0.02533406
404.00   3.23888470   0.02552293
405.00   3.23561271   0.02571274
406.00   3.23233267   0.02590348
407.00   3.22904459   0.02609516
408.00   3.22574847   0.02628779
409.00   3.22244431   0.02648136
410.00   3.21913212   0.02667587
411.00   3.21581188   0.02687134
412.00   3.21248361   0.02706775
413.00   3.20914729   0.02726512
414.00   3.20580294   0.02746345
415.00   3.20245056   0.02766273
416.00   3.19909013   0.02786297
417.00   3.19572167   0.02806418
418.00   3.19234518   0.02826635
419.00   3.18896064   0.02846948
420.00   3.18556808   0.02867359
421.00   3.18216747   0.02887867
422.00   3.17875884   0.02908472
423.00   3.17534216   0.02929175
424.00   3.17191746   0.02949975
425.00   3.16848472   0.02970874
426.00   3.16504394   0.02991871
427.00   3.16159514   0.03012967
428.00   3.15813830   0.03034161
429.00   3.15467343   0.03055455
430.00   3.15120053   0.03076847
431.00   3.14771960   0.03098339
432.00   3.14423063   0.03119931
433.00   3.14073364   0.03141622
434.00   3.13722861   0.03163414
435.00   3.13371556   0.03185306
436.00   3.13019447   0.03207299
437.00   3.12666536   0.03229393
438.00   3.12312822   0.03251587
439.00   3.11958305   0.03273883
440.00   3.11602985   0.03296280
441.00   3.11246862   0.03318779
442.00   3.10889937   0.03341381
443.00   3.10532209   0.03364084
444.00   3.10173678   0.03386889
445.00   3.09814345   0.03409798
446.00   3.09454209   0.03432809
447.00   3.09093271   0.03455923
448.00   3.08731530   0.03479141
449.00   3.08368987   0.03502462
450.00   3.08005642   0.03525887
451.00   3.07641494   0.03549416
452.00   3.07276544   0.03573050
453.00   3.06910791   0.03596787
454.00   3.06544236   0.03620630
455.00   3.06176879   0.03644577
456.00   3.05808720   0.03668630
457.00   3.05439759   0.03692788
458.00   3.05069996   0.03717051
459.00   3.04699430   0.03741421
460.00   3.04328063   0.03765896
461.00   3.03955894   0.03790478
462.00   3.03582922   0.03815166
463.00   3.03209149   0.03839961
464.00   3.02834574   0.03864864
465.00   3.02459198   0.03889873
466.00   3.02083019   0.03914990
467.00   3.01706039   0.03940214
468.00   3.01328257   0.03965546
469.00   3.00949674   0.03990987
470.00   3.00570288   0.04016536
471.00   3.00190102   0.04042193
472.00   2.99809114   0.04067959
473.00   2.99427324   0.04093834
474.00   2.99044733   0.04119819
475.00   2.98661341   0.04145913
476.00   2.98277147   0.04172117
477.00   2.97892152   0.04198430
478.00   2.97506355   0.04224854
479.00   2.97119758   0.04251388
480.00   2.96732359   0.04278033
481.00   2.96344159   0.04304789
482.00   2.95955158   0.04331656
483.00   2.95565356   0.04358634
484.00   2.95174754   0.04385724
485.00   2.94783350   0.04412925
486.00   2.94391145   0.04440239
487.00   2.93998139   0.04467664
488.00   2.93604332   0.04495203
489.00   2.93209725   0.04522853
490.00   2.92814317   0.04550617
491.00   2.92418108   0.04578494
492.00   2.92021099   0.04606484
493.00   2.91623289   0.04634588
494.00   2.91224678   0.04662806
495.00   2.90825267   0.04691138
496.00   2.90425055   0.04719584
497.00   2.90024043   0.04748144
498.00   2.89622231   0.04776819
499.00   2.89219618   0.04805610
500.00   2.88816204   0.04834515
501.00   2.88411991   0.04863536
502.00   2.88006977   0.04892672
503.00   2.87601164   0.04921924
504.00   2.87194550   0.04951293
505.00   2.86787135   0.04980778
506.00   2.86378921   0.05010379
507.00   2.85969907   0.05040097
508.00   2.85560093   0.05069932
509.00   2.85149479   0.05099884
510.00   2.84738065   0.05129954
511.00   2.84325851   0.05160141
512.00   2.83912838   0.05190447
513.00   2.83499025   0.05220870
514.00   2.83084412   0.05251412
515.00   2.82668999   0.05282072
516.00   2.82252787   0.05312852
517.00   2.81835775   0.05343750
518.00   2.81417964   0.05374767
519.00   2.80999354   0.05405904
520.00   2.80579943   0.05437161
521.00   2.80159734   0.05468538
522.00   2.79738725   0.05500035
523.00   2.79316917   0.05531652
524.00   2.78894310   0.05563390
525.00   2.78470903   0.05595249
526.00   2.78046698   0.05627229
527.00   2.77621693   0.05659330
528.00   2.77195889   0.05691553
529.00   2.76769286   0.05723898
530.00   2.76341885   0.05756364
531.00   2.75913684   0.05788953
532.00   2.75484684   0.05821664
533.00   2.75054886   0.05854498
534.00   2.74624289   0.05887455
535.00   2.74192893   0.05920535
536.00   2.73760699   0.05953738
537.00   2.73327705   0.05987065
538.00   2.72893914   0.06020515
539.00   2.72459323   0.06054090
540.00   2.72023935   0.06087789
541.00   2.71587747   0.06121613
542.00   2.71150762   0.06155561
543.00   2.70712978   0.06189634
544.00   2.70274396   0.06223832
545.00   2.69835015   0.06258156
546.00   2.69394836   0.06292605
547.00   2.68953860   0.06327180
548.00   2.68512085   0.06361881
549.00   2.68069512   0.06396709
550.00   2.67626141   0.06431663
551.00   2.67181972   0.06466744
552.00   2.66737005   0.06501952
553.00   2.66291240   0.06537287
554.00   2.65844677   0.06572749
555.00   2.65397317   0.06608339
556.00   2.64949159   0.06644057
557.00   2.64500203   0.06679903
558.00   2.64050450   0.06715877
559.00   2.63599899   0.06751980
560.00   2.63148550   0.06788212
561.00   2.62696404   0.06824573
562.00   2.62243461   0.06861063
563.00   2.61789720   0.06897682
564.00   2.61335182   0.06934431
565.00   2.60879846   0.06971310
566.00   2.60423714   0.07008320
567.00   2.59966784   0.07045459
568.00   2.59509057   0.07082729
569.00   2.59050533   0.07120130
570.00   2.58591212   0.07157662
571.00   2.58131094   0.07195326
572.00   2.57670179   0.07233120
573.00   2.57208467   0.07271047
574.00   2.56745958   0.07309105
575.00   2.56282653   0.07347296
576.00   2.55818551   0.07385619
577.00   2.55353652   0.07424075
578.00   2.54887956   0.07462663
579.00   2.54421464   0.07501385
580.00   2.53954176   0.07540240
581.00   2.53486091   0.07579228
582.00   2.53017209   0.07618350
583.00   2.52547531   0.07657606
584.00   2.52077057   0.07696997
585.00   2.51605786   0.07736521
586.00   2.51133720   0.07776181
587.00   2.50660857   0.07815975
588.00   2.50187198   0.07855905
589.00   2.49712743   0.07895969
590.00   2.49237492   0.07936170
591.00   2.48761444   0.07976506
592.00   2.48284601   0.08016978
593.00   2.47806963   0.08057586
594.00   2.47328528   0.08098331
595.00   2.46849297   0.08139212
596.00   2.46369271   0.08180231
597.00   2.45888450   0.08221386
598.00   2.45406832   0.08262679
599.00   2.44924419   0.08304110
600.00   2.44441211   0.08345678
601.00   2.43957207   0.08387384
602.00   2.43472408   0.08429229
603.00   2.42986813   0.08471212
604.00   2.42500423   0.08513334
605.00   2.42013238   0.08555594
606.00   2.41525258   0.08597994
607.00   2.41036482   0.08640533
608.00   2.40546912   0.08683212
609.00   2.40056546   0.08726031
610.00   2.39565385   0.08768989
611.00   2.39073430   0.08812088
612.00   2.38580680   0.08855328
613.00   2.38087134   0.08898708
614.00   2.37592795   0.08942229
615.00   2.37097660   0.08985892
616.00   2.36601731   0.09029696
617.00   2.36105007   0.09073641
618.00   2.35607489   0.09117728
619.00   2.35109176   0.09161958
620.00   2.34610068   0.09206329
621.00   2.34110167   0.09250843
622.00   2.33609471   0.09295500
623.00   2.33107980   0.09340300
624.00   2.32605696   0.09385243
625.00   2.32102617   0.09430330
626.00   2.31598744   0.09475560
627.00   2.31094078   0.09520934
628.00   2.30588617   0.09566452
629.00   2.30082362   0.09612115
630.00   2.29575313   0.09657922
631.00   2.29067471   0.09703874
632.00   2.28558835   0.09749970
633.00   2.28049405   0.09796212
634.00   2.27539181   0.09842600
635.00   2.27028164   0.09889133
636.00   2.26516353   0.09935812
637.00   2.26003749   0.09982637
638.00   2.25490351   0.10029609
639.00   2.24976160   0.10076727
640.00   2.24461175   0.10123992
641.00   2.23945397   0.10171403
642.00   2.23428826   0.10218963
643.00   2.22911462   0.10266669
644.00   2.22393305   0.10314523
645.00   2.21874354   0.10362526
646.00   2.21354611   0.10410676
647.00   2.20834075   0.10458974
648.00   2.20312746   0.10507422
649.00   2.19790624   0.10556018
650.00   2.19267709   0.10604763
651.00   2.18744001   0.10653657
652.00   2.18219501   0.10702701
653.00   2.17694208   0.10751894
654.00   2.17168123   0.10801238
655.00   2.16641245   0.10850731
656.00   2.16113575   0.10900375
657.00   2.15585112   0.10950170
658.00   2.15055858   0.11000115
659.00   2.14525810   0.11050212
660.00   2.13994971   0.11100459
661.00   2.13463339   0.11150858
662.00   2.12930916   0.11201409
663.00   2.12397700   0.11252112
664.00   2.11863692   0.11302967
665.00   2.11328893   0.11353974
666.00   2.10793301   0.11405134
667.00   2.10256918   0.11456447
668.00   2.09719743   0.11507913
669.00   2.09181777   0.11559532
670.00   2.08643018   0.11611305
671.00   2.08103469   0.11663231
672.00   2.07563127   0.11715311
673.00   2.07021995   0.11767546
674.00   2.06480070   0.11819934
675.00   2.05937355   0.11872478
676.00   2.05393848   0.11925176
677.00   2.04849550   0.11978029
678.00   2.04304461   0.12031038
679.00   2.03758581   0.12084202
680.00   2.03211909   0.12137522
681.00   2.02664447   0.12190998
682.00   2.02116194   0.12244630
683.00   2.01567150   0.12298418
684.00   2.01017315   0.12352363
685.00   2.00466689   0.12406465
686.00   1.99915273   0.12460724
687.00   1.99363066   0.12515140
688.00   1.98810069   0.12569714
689.00   1.98256281   0.12624445
690.00   1.97701702   0.12679335
691.00   1.97146334   0.12734382
692.00   1.96590174   0.12789588
693.00   1.96033225   0.12844953
694.00   1.95475486   0.12900476
695.00   1.94916956   0.12956159
696.00   1.94357636   0.13012001
697.00   1.93797526   0.13068002
698.00   1.93236626   0.13124163
699.00   1.92674937   0.13180484
700.00   1.92112457   0.13236965
701.00   1.91549188   0.13293607
702.00   1.90985129   0.13350409
703.00   1.90420280   0.13407372
704.00   1.89854642   0.13464496
705.00   1.89288214   0.13521782
706.00   1.88720997   0.13579229
707.00   1.88152990   0.13636838
708.00   1.87584194   0.13694608
709.00   1.87014609   0.13752541
710.00   1.86444234   0.13810636
711.00   1.85873070   0.13868894
712.00   1.85301118   0.13927315
713.00   1.84728376   0.13985899
714.00   1.84154845   0.14044646
715.00   1.83580525   0.14103557
716.00   1.83005416   0.14162631
717.00   1.82429519   0.14221869
718.00   1.81852833   0.14281272
719.00   1.81275358   0.14340839
720.00   1.80697095   0.14400570
721.00   1.80118043   0.14460467
722.00   1.79538202   0.14520528
723.00   1.78957573   0.14580755
724.00   1.78376156   0.14641147
725.00   1.77793951   0.14701705
726.00   1.77210957   0.14762429
727.00   1.76627175   0.14823319
728.00   1.76042605   0.14884375
729.00   1.75457247   0.14945599
730.00   1.74871101   0.15006988
731.00   1.74284167   0.15068545
732.00   1.73696445   0.15130270
733.00   1.73107935   0.15192162
734.00   1.72518638   0.15254221
735.00   1.71928553   0.15316449
736.00   1.71337680   0.15378844
737.00   1.70746020   0.15441408
738.00   1.70153573   0.15504141
739.00   1.69560338   0.15567042
740.00   1.68966315   0.15630113
741.00   1.68371506   0.15693353
742.00   1.67775909   0.15756762
743.00   1.67179525   0.15820341
744.00   1.66582354   0.15884090
745.00   1.65984396   0.15948009
746.00   1.65385651   0.16012099
747.00   1.64786119   0.16076359
748.00   1.64185800   0.16140790
749.00   1.63584694   0.16205392
750.00   1.62982802   0.16270165
751.00   1.62380123   0.16335110
752.00   1.61776658   0.16400226
753.00   1.61172406   0.16465514
754.00   1.60567367   0.16530975
755.00   1.59961543   0.16596608
756.00   1.59354932   0.16662413
757.00   1.58747534   0.16728392
758.00   1.58139351   0.16794543
759.00   1.57530381   0.16860867
760.00   1.56920626   0.16927365
761.00   1.56310084   0.16994037
762.00   1.55698757   0.17060883
763.00   1.55086643   0.17127903
764.00   1.54473744   0.17195097
765.00   1.53860059   0.17262465
766.00   1.53245589   0.17330009
767.00   1.52630333   0.17397727
768.00   1.52014291   0.17465621
769.00   1.51397464   0.17533690
770.00   1.50779852   0.17601935
771.00   1.50161454   0.17670356
772.00   1.49542271   0.17738953
773.00   1.48922303   0.17807726
774.00   1.48301549   0.17876676
775.00   1.47680011   0.17945802
776.00   1.47057688   0.18015106
777.00   1.46434579   0.18084587
778.00   1.45810686   0.18154245
779.00   1.45186008   0.18224081
780.00   1.44560546   0.18294094
781.00   1.43934299   0.18364286
782.00   1.43307267   0.18434656
783.00   1.42679451   0.18505205
784.00   1.42050850   0.18575932
785.00   1.41421465   0.18646839
786.00   1.40791295   0.18717924
787.00   1.40160341   0.18789189
788.00   1.39528604   0.18860634
789.00   1.38896082   0.18932259
790.00   1.38262776   0.19004063
791.00   1.37628686   0.19076048
792.00   1.36993812   0.19148213
793.00   1.36358154   0.19220560
794.00   1.35721713   0.19293087
795.00   1.35084488   0.19365795
796.00   1.34446479   0.19438684
797.00   1.33807686   0.19511756
798.00   1.33168111   0.19585009
799.00   1.32527751   0.19658444
800.00   1.31886609   0.19732061
801.00   1.31244683   0.19805861
802.00   1.30601974   0.19879844
803.00   1.29958482   0.19954009
804.00   1.29314206   0.20028358
805.00   1.28669148   0.20102890
806.00   1.28023307   0.20177606
807.00   1.27376683   0.20252505
808.00   1.26729276   0.20327589
809.00   1.26081086   0.20402856
810.00   1.25432114   0.20478308
811.00   1.24782359   0.20553945
812.00   1.24131822   0.20629767
813.00   1.23480502   0.20705774
814.00   1.22828400   0.20781966
815.00   1.22175515   0.20858344
816.00   1.21521849   0.20934907
817.00   1.20867400   0.21011657
818.00   1.20212169   0.21088592
819.00   1.19556156   0.21165715
820.00   1.18899361   0.21243023
821.00   1.18241784   0.21320519
822.00   1.17583425   0.21398202
823.00   1.16924285   0.21476072
824.00   1.16264363   0.21554129
825.00   1.15603659   0.21632375
826.00   1.14942174   0.21710808
827.00   1.14279907   0.21789429
828.00   1.13616859   0.21868239
829.00   1.12953030   0.21947238
830.00   1.12288419   0.22026425
831.00   1.11623027   0.22105801
832.00   1.10956855   0.22185367
833.00   1.10289901   0.22265122
834.00   1.09622166   0.22345067
835.00   1.08953650   0.22425202
836.00   1.08284353   0.22505527
837.00   1.07614276   0.22586042
838.00   1.06943418   0.22666748
839.00   1.06271780   0.22747644
840.00   1.05599361   0.22828732
841.00   1.04926161   0.22910011
842.00   1.04252181   0.22991481
843.00   1.03577421   0.23073143
844.00   1.02901880   0.23154997
845.00   1.02225560   0.23237043
846.00   1.01548459   0.23319281
847.00   1.00870578   0.23401712
848.00   1.00191918   0.23484336
849.00   0.99512477   0.23567152
850.00   0.98832257   0.23650162
851.00   0.98151257   0.23733365
852.00   0.97469477   0.23816762
853.00   0.96786918   0.23900353
854.00   0.96103579   0.23984137
855.00   0.95419461   0.24068116
856.00   0.94734563   0.24152290
857.00   0.94048886   0.24236658
858.00   0.93362430   0.24321221
859.00   0.92675195   0.24405979
860.00   0.91987181   0.24490933
861.00   0.91298387   0.24576082
862.00   0.90608815   0.24661427
863.00   0.89918464   0.24746968
864.00   0.89227334   0.24832706
865.00   0.88535426   0.24918639
866.00   0.87842739   0.25004770
867.00   0.87149273   0.25091097
868.00   0.86455029   0.25177622
869.00   0.85760006   0.25264343
870.00   0.85064205   0.25351263
871.00   0.84367626   0.25438380
872.00   0.83670269   0.25525695
873.00   0.82972134   0.25613208
874.00   0.82273220   0.25700919
875.00   0.81573529   0.25788830
876.00   0.80873060   0.25876939
877.00   0.80171813   0.25965247
878.00   0.79469788   0.26053754
879.00   0.78766985   0.26142461
880.00   0.78063405   0.26231368
881.00   0.77359048   0.26320474
882.00   0.76653913   0.26409781
883.00   0.75948001   0.26499288
884.00   0.75241311   0.26588995
885.00   0.74533845   0.26678904
886.00   0.73825601   0.26769013
887.00   0.73116580   0.26859324
888.00   0.72406782   0.26949836
889.00   0.71696208   0.27040549
890.00   0.70984856   0.27131465
891.00   0.70272728   0.27222582
892.00   0.69559823   0.27313902
893.00   0.68846141   0.27405425
894.00   0.68131683   0.27497150
895.00   0.67416449   0.27589078
896.00   0.66700438   0.27681209
897.00   0.65983651   0.27773544
898.00   0.65266088   0.27866082
899.00   0.64547749   0.27958824
900.00   0.63828633   0.28051770
901.00   0.63108742   0.28144921
902.00   0.62388075   0.28238276
903.00   0.61666631   0.28331835
904.00   0.60944413   0.28425600
905.00   0.60221418   0.28519569
906.00   0.59497648   0.28613744
907.00   0.58773102   0.28708124
908.00   0.58047781   0.28802710
909.00   0.57321685   0.28897503
910.00   0.56594813   0.28992501
911.00   0.55867167   0.29087705
912.00   0.55138745   0.29183117
913.00   0.54409548   0.29278735
914.00   0.53679576   0.29374560
915.00   0.52948829   0.29470593
916.00   0.52217307   0.29566833
917.00   0.51485011   0.29663280
918.00   0.50751940   0.29759936
919.00   0.50018094   0.29856799
920.00   0.49283474   0.29953871
921.00   0.48548080   0.30051152
922.00   0.47811911   0.30148641
923.00   0.47074968   0.30246340
924.00   0.46337251   0.30344247
925.00   0.45598759   0.30442364
926.00   0.44859494   0.30540691
927.00   0.44119455   0.30639227
928.00   0.43378642   0.30737973
929.00   0.42637055   0.30836930
930.00   0.41894694   0.30936097
931.00   0.41151560   0.31035475
932.00   0.40407652   0.31135064
933.00   0.39662971   0.31234864
934.00   0.38917516   0.31334875
935.00   0.38171288   0.31435098
936.00   0.37424287   0.31535533
937.00   0.36676513   0.31636180
938.00   0.35927965   0.31737038
939.00   0.35178645   0.31838110
940.00   0.34428552   0.31939394
941.00   0.33677686   0.32040890
942.00   0.32926047   0.32142600
943.00   0.32173636   0.32244523
944.00   0.31420452   0.32346660
945.00   0.30666495   0.32449010
946.00   0.29911766   0.32551575
947.00   0.29156265   0.32654353
948.00   0.28399991   0.32757346
949.00   0.27642946   0.32860553
950.00   0.26885128   0.32963975
951.00   0.26126538   0.33067612
952.00   0.25367176   0.33171464
953.00   0.24607042   0.33275532
954.00   0.23846137   0.33379815
955.00   0.23084460   0.33484314
956.00   0.22322011   0.33589030
957.00   0.21558791   0.33693961
958.00   0.20794799   0.33799109
959.00   0.20030036   0.33904474
960.00   0.19264502   0.34010055
961.00   0.18498197   0.34115854
962.00   0.17731120   0.34221870
963.00   0.16963272   0.34328104
964.00   0.16194654   0.34434555
965.00   0.15425264   0.34541224
966.00   0.14655104   0.34648112
967.00   0.13884173   0.34755218
968.00   0.13112471   0.34862543
969.00   0.12339999   0.34970086
970.00   0.11566756   0.35077849
971.00   0.10792743   0.35185830
972.00   0.10017960   0.35294031
973.00   0.09242407   0.35402452
974.00   0.08466083   0.35511093
975.00   0.07688989   0.35619954
976.00   0.06911126   0.35729035
977.00   0.06132492   0.35838337
978.00   0.05353089   0.35947860
979.00   0.04572916   0.36057603
980.00   0.03791973   0.36167568
981.00   0.03010261   0.36277754
982.00   0.02227779   0.36388162
983.00   0.01444528   0.36498791
984.00   0.00660508   0.36609643
985.00  -0.00124282   0.36720716
986.00  -0.00909841   0.36832013
987.00  -0.01696168   0.36943532
988.00  -0.02483265   0.37055273
989.00  -0.03271131   0.37167238
990.00  -0.04059765   0.37279426
991.00  -0.04849168   0.37391838
992.00  -0.05639340   0.37504474
993.00  -0.06430280   0.37617333
994.00  -0.07221989   0.37730417
995.00  -0.08014466   0.37843724
996.00  -0.08807711   0.37957257
997.00  -0.09601725   0.38071014
998.00  -0.10396507   0.38184996
999.00  -0.11192056   0.38299204
1000.00  -0.11988374   0.38413637
1001.00  -0.12785460   0.38528295
1002.00  -0.13583313   0.38643180
1003.00  -0.14381934   0.38758290
1004.00  -0.15181323   0.38873627
1005.00  -0.15981479   0.38989190
1006.00  -0.16782402   0.39104980
1007.00  -0.17584093   0.39220997
1008.00  -0.18386551   0.39337241
1009.00  -0.19189777   0.39453712
1010.00  -0.19993769   0.39570411
1011.00  -0.20798529   0.39687338
1012.00  -0.21604055   0.39804493
1013.00  -0.22410349   0.39921875
1014.00  -0.23217409   0.40039486
1015.00  -0.24025235   0.40157326
1016.00  -0.24833829   0.40275395
1017.00  -0.25643188   0.40393692
1018.00  -0.26453315   0.40512219
1019.00  -0.27264207   0.40630976
1020.00  -0.28075866   0.40749962
1021.00  -0.28888291   0.40869177
1022.00  -0.29701482   0.40988623
1023.00  -0.30515439   0.41108300
1024.00  -0.31330161   0.41228206
1025.00  -0.32145650   0.41348344
1026.00  -0.32961904   0.41468712
1027.00  -0.33778924   0.41589312
1028.00  -0.34596710   0.41710142
1029.00  -0.35415261   0.41831205
1030.00  -0.36234577   0.41952499
1031.00  -0.37054659   0.42074025
1032.00  -0.37875506   0.42195784
1033.00  -0.38697118   0.42317774
1034.00  -0.39519495   0.42439998
1035.00  -0.40342637   0.42562454
1036.00  -0.41166543   0.42685143
1037.00  -0.41991215   0.42808066
1038.00  -0.42816651   0.42931222
1039.00  -0.43642852   0.43054611
1040.00  -0.44469817   0.43178235
1041.00  -0.45297546   0.43302092
1042.00  -0.46126040   0.43426184
1043.00  -0.46955299   0.43550511
1044.00  -0.47785321   0.43675072
1045.00  -0.48616107   0.43799868
1046.00  -0.49447658   0.43924899
1047.00  -0.50279972   0.44050166
1048.00  -0.51113050   0.44175668
1049.00  -0.51946891   0.44301406
1050.00  -0.52781497   0.44427379
1051.00  -0.53616866   0.44553589
1052.00  -0.54452998   0.44680036
1053.00  -0.55289893   0.44806719
1054.00  -0.56127552   0.44933639
1055.00  -0.56965974   0.45060796
1056.00  -0.57805159   0.45188190
1057.00  -0.58645108   0.45315821
1058.00  -0.59485818   0.45443691
1059.00  -0.60327292   0.45571798
1060.00  -0.61169529   0.45700143
1061.00  -0.62012528   0.45828727
1062.00  -0.62856290   0.45957549
1063.00  -0.63700814   0.46086609
1064.00  -0.64546100   0.46215909
1065.00  -0.65392149   0.46345448
1066.00  -0.66238960   0.46475226
1067.00  -0.67086533   0.46605243
1068.00  -0.67934868   0.46735501
1069.00  -0.68783965   0.46865998
1070.00  -0.69633824   0.46996735
1071.00  -0.70484444   0.47127713
1072.00  -0.71335826   0.47258932
1073.00  -0.72187970   0.47390391
1074.00  -0.73040875   0.47522091
1075.00  -0.73894542   0.47654033
1076.00  -0.74748969   0.47786216
1077.00  -0.75604158   0.47918640
1078.00  -0.76460109   0.48051307
1079.00  -0.77316820   0.48184215
1080.00  -0.78174292   0.48317366
1081.00  -0.79032524   0.48450759
1082.00  -0.79891518   0.48584395
1083.00  -0.80751272   0.48718274
1084.00  -0.81611787   0.48852396
1085.00  -0.82473062   0.48986761
1086.00  -0.83335098   0.49121370
1087.00  -0.84197894   0.49256222
1088.00  -0.85061450   0.49391318
1089.00  -0.85925766   0.49526659
1090.00  -0.86790842   0.49662244
1091.00  -0.87656678   0.49798073
1092.00  -0.88523274   0.49934147
1093.00  -0.89390629   0.50070466
1094.00  -0.90258744   0.50207031
1095.00  -0.91127619   0.50343840
1096.00  -0.91997253   0.50480896
1097.00  -0.92867647   0.50618197
1098.00  -0.93738800   0.50755744
1099.00  -0.94610712   0.50893537
1100.00  -0.95483383   0.51031577
1101.00  -0.96356813   0.51169863
1102.00  -0.97231002   0.51308397
1103.00  -0.98105950   0.51447177
1104.00  -0.98981656   0.51586204
1105.00  -0.99858121   0.51725479
1106.00  -1.00735345   0.51865002
1107.00  -1.01613327   0.52004773
1108.00  -1.02492067   0.52144791
1109.00  -1.03371566   0.52285058
1110.00  -1.04251823   0.52425574
1111.00  -1.05132837   0.52566338
1112.00  -1.06014610   0.52707351
1113.00  -1.06897141   0.52848613
1114.00  -1.07780429   0.52990125
1115.00  -1.08664476   0.53131886
1116.00  -1.09549279   0.53273897
1117.00  -1.10434840   0.53416158
1118.00  -1.11321159   0.53558669
1119.00  -1.12208235   0.53701430
1120.00  -1.13096068   0.53844442
1121.00  -1.13984658   0.53987705
1122.00  -1.14874006   0.54131218
1123.00  -1.15764110   0.54274983
1124.00  -1.16654971   0.54419000
1125.00  -1.17546589   0.54563267
1126.00  -1.18438963   0.54707787
1127.00  -1.19332094   0.54852559
1128.00  -1.20225982   0.54997583
1129.00  -1.21120626   0.55142859
1130.00  -1.22016026   0.55288388
1131.00  -1.22912182   0.55434170
1132.00  -1.23809094   0.55580205
1133.00  -1.24706763   0.55726494
1134.00  -1.25605187   0.55873035
1135.00  -1.26504367   0.56019831
1136.00  -1.27404303   0.56166880
1137.00  -1.28304994   0.56314184
1138.00  -1.29206441   0.56461741
1139.00  -1.30108644   0.56609553
1140.00  -1.31011601   0.56757620
1141.00  -1.31915314   0.56905942
1142.00  -1.32819782   0.57054519
1143.00  -1.33725005   0.57203351
1144.00  -1.34630983   0.57352439
1145.00  -1.35537716   0.57501783
1146.00  -1.36445203   0.57651382
1147.00  -1.37353445   0.57801238
1148.00  -1.38262442   0.57951350
1149.00  -1.39172193   0.58101718
1150.00  -1.40082699   0.58252344
1151.00  -1.40993959   0.58403226
1152.00  -1.41905973   0.58554366
1153.00  -1.42818741   0.58705762
1154.00  -1.43732263   0.58857417
1155.00  -1.44646539   0.59009329
1156.00  -1.45561569   0.59161499
1157.00  -1.46477352   0.59313928
1158.00  -1.47393889   0.59466615
1159.00  -1.48311180   0.59619560
1160.00  -1.49229223   0.59772765
1161.00  -1.50148021   0.59926228
1162.00  -1.51067571   0.60079951
1163.00  -1.51987875   0.60233933
1164.00  -1.52908931   0.60388174
1165.00  -1.53830740   0.60542676
1166.00  -1.54753303   0.60697437
1167.00  -1.55676618   0.60852459
1168.00  -1.56600685   0.61007742
1169.00  -1.57525505   0.61163285
1170.00  -1.58451078   0.61319088
1171.00  -1.59377403   0.61475153
1172.00  -1.60304480   0.61631480
1173.00  -1.61232309   0.61788067
1174.00  -1.62160890   0.61944917
1175.00  -1.63090223   0.62102028
1176.00  -1.64020308   0.62259401
1177.00  -1.64951145   0.62417037
1178.00  -1.65882734   0.62574935
1179.00  -1.66815074   0.62733096
1180.00  -1.67748165   0.62891520
1181.00  -1.68682008   0.63050207
1182.00  -1.69616602   0.63209157
1183.00  -1.70551947   0.63368371
1184.00  -1.71488043   0.63527849
1185.00  -1.72424890   0.63687590
1186.00  -1.73362488   0.63847596
1187.00  -1.74300837   0.64007866
1188.00  -1.75239936   0.64168400
1189.00  -1.76179786   0.64329200
1190.00  -1.77120386   0.64490264
1191.00  -1.78061737   0.64651593
1192.00  -1.79003838   0.64813188
1193.00  -1.79946689   0.64975049
1194.00  -1.80890291   0.65137175
1195.00  -1.81834642   0.65299567
1196.00  -1.82779743   0.65462225
1197.00  -1.83725594   0.65625150
1198.00  -1.84672194   0.65788341
1199.00  -1.85619544   0.65951799
1200.00  -1.86567644   0.66115524
1201.00  -1.87516493   0.66279517
1202.00  -1.88466091   0.66443776
1203.00  -1.89416438   0.66608304
1204.00  -1.90367534   0.66773099
1205.00  -1.91319380   0.66938162
1206.00  -1.92271974   0.67103493
1207.00  -1.93225317   0.67269093
1208.00  -1.94179408   0.67434961
1209.00  -1.95134248   0.67601098
1210.00  -1.96089837   0.67767505
1211.00  -1.97046174   0.67934180
1212.00  -1.98003259   0.68101125
1213.00  -1.98961093   0.68268340
1214.00  -1.99919674   0.68435824
1215.00  -2.00879003   0.68603578
1216.00  -2.01839081   0.68771603
1217.00  -2.02799906   0.68939898
1218.00  -2.03761478   0.69108464
1219.00  -2.04723799   0.69277301
1220.00  -2.05686866   0.69446408
1221.00  -2.06650681   0.69615787
1222.00  -2.07615243   0.69785438
1223.00  -2.08580553   0.69955360
1224.00  -2.09546609   0.70125554
1225.00  -2.10513413   0.70296020
1226.00  -2.11480963   0.70466758
1227.00  -2.12449260   0.70637769
1228.00  -2.13418303   0.70809052
1229.00  -2.14388094   0.70980608
1230.00  -2.15358630   0.71152438
1231.00  -2.16329913   0.71324540
1232.00  -2.17301942   0.71496916
1233.00  -2.18274718   0.71669566
1234.00  -2.19248239   0.71842490
1235.00  -2.20222506   0.72015688
1236.00  -2.21197519   0.72189160
1237.00  -2.22173278   0.72362906
1238.00  -2.23149782   0.72536928
1239.00  -2.24127032   0.72711224
1240.00  -2.25105027   0.72885795
1241.00  -2.26083768   0.73060642
1242.00  -2.27063254   0.73235764
1243.00  -2.28043485   0.73411161
1244.00  -2.29024461   0.73586835
1245.00  -2.30006181   0.73762785
1246.00  -2.30988647   0.73939011
1247.00  -2.31971857   0.74115513
1248.00  -2.32955812   0.74292293
1249.00  -2.33940511   0.74469349
1250.00  -2.34925955   0.74646682
1251.00  -2.35912143   0.74824293
1252.00  -2.36899075   0.75002181
1253.00  -2.37886752   0.75180347
1254.00  -2.38875172   0.75358790
1255.00  -2.39864336   0.75537512
1256.00  -2.40854244   0.75716512
1257.00  -2.41844895   0.75895791
1258.00  -2.42836290   0.76075349
1259.00  -2.43828429   0.76255185
1260.00  -2.44821310   0.76435300
1261.00  -2.45814936   0.76615695
1262.00  -2.46809304   0.76796369
1263.00  -2.47804415   0.76977323
1264.00  -2.48800269   0.77158557
1265.00  -2.49796866   0.77340071
1266.00  -2.50794206   0.77521866
1267.00  -2.51792288   0.77703940
1268.00  -2.52791113   0.77886296
1269.00  -2.53790680   0.78068933
1270.00  -2.54790989   0.78251850
1271.00  -2.55792041   0.78435049
1272.00  -2.56793835   0.78618530
1273.00  -2.57796371   0.78802292
1274.00  -2.58799648   0.78986336
1275.00  -2.59803668   0.79170662
1276.00  -2.60808429   0.79355271
1277.00  -2.61813931   0.79540162
1278.00  -2.62820175   0.79725335
1279.00  -2.63827161   0.79910792
1280.00  -2.64834888   0.80096532
1281.00  -2.65843355   0.80282555
1282.00  -2.66852564   0.80468862
1283.00  -2.67862514   0.80655452
1284.00  -2.68873205   0.80842327
1285.00  -2.69884636   0.81029485
1286.00  -2.70896808   0.81216928
1287.00  -2.71909720   0.81404655
1288.00  -2.72923373   0.81592667
1289.00  -2.73937766   0.81780964
1290.00  -2.74952899   0.81969546
1291.00  -2.75968773   0.82158413
1292.00  -2.76985386   0.82347566
1293.00  -2.78002739   0.82537004
1294.00  -2.79020832   0.82726729
1295.00  -2.80039665   0.82916739
1296.00  -2.81059237   0.83107036
1297.00  -2.82079549   0.83297619
1298.00  -2.83100600   0.83488490
1299.00  -2.84122390   0.83679646
1300.00  -2.85144919   0.83871091
1301.00  -2.86168187   0.84062822
1302.00  -2.87192195   0.84254841
1303.00  -2.88216941   0.84447147
1304.00  -2.89242425   0.84639742
1305.00  -2.90268649   0.84832624
1306.00  -2.91295610   0.85025795
1307.00  -2.92323310   0.85219254
1308.00  -2.93351749   0.85413002
1309.00  -2.94380925   0.85607039
1310.00  -2.95410840   0.85801365
1311.00  -2.96441493   0.85995980
1312.00  -2.97472883   0.86190885
1313.00  -2.98505011   0.86386080
1314.00  -2.99537877   0.86581564
1315.00  -3.00571480   0.86777338
1316.00  -3.01605820   0.86973403
1317.00  -3.02640898   0.87169758
1318.00  -3.03676713   0.87366404
1319.00  -3.04713266   0.87563340
1320.00  -3.05750555   0.87760568
1321.00  -3.06788581   0.87958087
1322.00  -3.07827343   0.88155898
1323.00  -3.08866843   0.88354000
1324.00  -3.09907079   0.88552394
1325.00  -3.10948051   0.88751080
1326.00  -3.11989759   0.88950058
1327.00  -3.13032204   0.89149328
1328.00  -3.14075385   0.89348892
1329.00  -3.15119302   0.89548748
1330.00  -3.16163955   0.89748897
1331.00  -3.17209344   0.89949340
1332.00  -3.18255468   0.90150075
1333.00  -3.19302328   0.90351105
1334.00  -3.20349923   0.90552428
1335.00  -3.21398253   0.90754046
1336.00  -3.22447319   0.90955957
1337.00  -3.23497120   0.91158163
1338.00  -3.24547656   0.91360664
1339.00  -3.25598927   0.91563459
1340.00  -3.26650932   0.91766550
1341.00  -3.27703672   0.91969935
1342.00  -3.28757147   0.92173616
1343.00  -3.29811357   0.92377593
1344.00  -3.30866300   0.92581865
1345.00  -3.31921978   0.92786434
1346.00  -3.32978390   0.92991298
1347.00  -3.34035536   0.93196459
1348.00  -3.35093416   0.93401917
1349.00  -3.36152030   0.93607671
1350.00  -3.37211377   0.93813722
1351.00  -3.38271458   0.94020070
1352.00  -3.39332272   0.94226716
1353.00  -3.40393820   0.94433660
1354.00  -3.41456101   0.94640901
1355.00  -3.42519115   0.94848440
1356.00  -3.43582862   0.95056277
1357.00  -3.44647343   0.95264412
1358.00  -3.45712555   0.95472847
1359.00  -3.46778501   0.95681579
1360.00  -3.47845179   0.95890611
1361.00  -3.48912590   0.96099942
1362.00  -3.49980733   0.96309572
1363.00  -3.51049608   0.96519502
1364.00  -3.52119215   0.96729731
1365.00  -3.53189555   0.96940260
1366.00  -3.54260626   0.97151090
1367.00  -3.55332429   0.97362220
1368.00  -3.56404964   0.97573650
1369.00  -3.57478230   0.97785381
1370.00  -3.58552228   0.97997412
1371.00  -3.59626957   0.98209745
1372.00  -3.60702417   0.98422379
1373.00  -3.61778609   0.98635315
1374.00  -3.62855531   0.98848552
1375.00  -3.63933185   0.99062091
1376.00  -3.65011569   0.99275932
1377.00  -3.66090684   0.99490076
1378.00  -3.67170529   0.99704521
1379.00  -3.68251105   0.99919270
1380.00  -3.69332411   1.00134321
1381.00  -3.70414448   1.00349675
1382.00  -3.71497215   1.00565333
1383.00  -3.72580711   1.00781294
1384.00  -3.73664938   1.00997558
1385.00  -3.74749894   1.01214127
1386.00  -3.75835580   1.01430999
1387.00  -3.76921995   1.01648176
1388.00  -3.78009140   1.01865657
1389.00  -3.79097014   1.02083442
1390.00  -3.80185618   1.02301532
1391.00  -3.81274951   1.02519927
1392.00  -3.82365012   1.02738628
1393.00  -3.83455802   1.02957634
1394.00  -3.84547322   1.03176945
1395.00  -3.85639570   1.03396562
1396.00  -3.86732546   1.03616485
1397.00  -3.87826251   1.03836714
1398.00  -3.88920684   1.04057249
1399.00  -3.90015845   1.04278091
1400.00  -3.91111734   1.04499240
1401.00  -3.92208352   1.04720695
1402.00  -3.93305697   1.04942458
1403.00  -3.94403770   1.05164528
1404.00  -3.95502570   1.05386905
1405.00  -3.96602098   1.05609591
1406.00  -3.97702354   1.05832583
1407.00  -3.98803337   1.06055884
1408.00  -3.99905047   1.06279494
1409.00  -4.01007483   1.06503411
1410.00  -4.02110647   1.06727638
1411.00  -4.03214538   1.06952173
1412.00  -4.04319156   1.07177017
1413.00  -4.05424500   1.07402171
1414.00  -4.06530570   1.07627634
1415.00  -4.07637367   1.07853406
1416.00  -4.08744890   1.08079488
1417.00  -4.09853139   1.08305881
1418.00  -4.10962114   1.08532583
1419.00  -4.12071816   1.08759596
1420.00  -4.13182243   1.08986919
1421.00  -4.14293395   1.09214553
1422.00  -4.15405273   1.09442498
1423.00  -4.16517877   1.09670755
1424.00  -4.17631206   1.09899322
1425.00  -4.18745260   1.10128201
1426.00  -4.19860039   1.10357392
1427.00  -4.20975544   1.10586895
1428.00  -4.22091773   1.10816710
1429.00  -4.23208727   1.11046837
1430.00  -4.24326405   1.11277277
1431.00  -4.25444808   1.11508029
1432.00  -4.26563936   1.11739094
1433.00  -4.27683787   1.11970473
1434.00  -4.28804363   1.12202164
1435.00  -4.29925663   1.12434169
1436.00  -4.31047687   1.12666488
1437.00  -4.32170435   1.12899120
1438.00  -4.33293906   1.13132067
1439.00  -4.34418101   1.13365327
1440.00  -4.35543020   1.13598902
1441.00  -4.36668662   1.13832792
1442.00  -4.37795027   1.14066997
1443.00  -4.38922115   1.14301516
1444.00  -4.40049926   1.14536351
1445.00  -4.41178460   1.14771501
1446.00  -4.42307717   1.15006966
1447.00  -4.43437696   1.15242748
1448.00  -4.44568399   1.15478845
1449.00  -4.45699823   1.15715258
1450.00  -4.46831970   1.15951988
1451.00  -4.47964839   1.16189034
1452.00  -4.49098430   1.16426397
1453.00  -4.50232743   1.16664077
1454.00  -4.51367778   1.16902074
1455.00  -4.52503534   1.17140388
1456.00  -4.53640012   1.17379020
1457.00  -4.54777212   1.17617969
1458.00  -4.55915133   1.17857236
1459.00  -4.57053775   1.18096821
1460.00  -4.58193139   1.18336725
1461.00  -4.59333223   1.18576946
1462.00  -4.60474029   1.18817487
1463.00  -4.61615555   1.19058346
1464.00  -4.62757801   1.19299524
1465.00  -4.63900769   1.19541022
1466.00  -4.65044456   1.19782838
1467.00  -4.66188864   1.20024975
1468.00  -4.67333993   1.20267431
1469.00  -4.68479841   1.20510207
1470.00  -4.69626409   1.20753303
1471.00  -4.70773697   1.20996719
1472.00  -4.71921705   1.21240456
1473.00  -4.73070432   1.21484514
1474.00  -4.74219879   1.21728892
1475.00  -4.75370045   1.21973592
1476.00  -4.76520931   1.22218612
1477.00  -4.77672535   1.22463955
1478.00  -4.78824859   1.22709619
1479.00  -4.79977901   1.22955604
1480.00  -4.81131663   1.23201912
1481.00  -4.82286143   1.23448542
1482.00  -4.83441341   1.23695495
1483.00  -4.84597258   1.23942769
1484.00  -4.85753893   1.24190367
1485.00  -4.86911246   1.24438288
1486.00  -4.88069317   1.24686532
1487.00  -4.89228107   1.24935099
1488.00  -4.90387614   1.25183990
1489.00  -4.91547838   1.25433204
1490.00  -4.92708781   1.25682743
1491.00  -4.93870440   1.25932605
1492.00  -4.95032817   1.26182792
1493.00  -4.96195912   1.26433303
1494.00  -4.97359723   1.26684139
1495.00  -4.98524251   1.26935300
1496.00  -4.99689497   1.27186785
1497.00  -5.00855458   1.27438596
1498.00  -5.02022137   1.27690733
1499.00  -5.03189532   1.27943195
1500.00  -5.04357643   1.28195983
1501.00  -5.05526471   1.28449096
1502.00  -5.06696015   1.28702536
1503.00  -5.07866275   1.28956303
1504.00  -5.09037250   1.29210396
1505.00  -5.10208942   1.29464815
1506.00  -5.11381349   1.29719562
1507.00  -5.12554471   1.29974636
1508.00  -5.13728309   1.30230036
1509.00  -5.14902863   1.30485765
1510.00  -5.16078131   1.30741821
1511.00  -5.17254115   1.30998205
1512.00  -5.18430813   1.31254917
1513.00  -5.19608226   1.31511957
1514.00  -5.20786354   1.31769326
1515.00  -5.21965197   1.32027023
1516.00  -5.23144753   1.32285049
1517.00  -5.24325025   1.32543404
1518.00  -5.25506010   1.32802089
1519.00  -5.26687709   1.33061102
1520.00  -5.27870123   1.33320445
1521.00  -5.29053250   1.33580118
1522.00  -5.30237091   1.33840121
1523.00  -5.31421646   1.34100454
1524.00  -5.32606914   1.34361117
1525.00  -5.33792895   1.34622111
1526.00  -5.34979589   1.34883435
1527.00  -5.36166997   1.35145090
1528.00  -5.37355118   1.35407076
1529.00  -5.38543951   1.35669394
1530.00  -5.39733497   1.35932043
1531.00  -5.40923756   1.36195023
1532.00  -5.42114728   1.36458335
1533.00  -5.43306411   1.36721980
1534.00  -5.44498807   1.36985956
1535.00  -5.45691915   1.37250265
1536.00  -5.46885735   1.37514906
1537.00  -5.48080267   1.37779880
1538.00  -5.49275511   1.38045187
1539.00  -5.50471466   1.38310827
1540.00  -5.51668133   1.38576800
1541.00  -5.52865511   1.38843107
1542.00  -5.54063600   1.39109747
1543.00  -5.55262401   1.39376721
1544.00  -5.56461912   1.39644029
1545.00  -5.57662135   1.39911672
1546.00  -5.58863068   1.40179648
1547.00  -5.60064712   1.40447960
1548.00  -5.61267066   1.40716606
1549.00  -5.62470131   1.40985587
1550.00  -5.63673906   1.41254903
1551.00  -5.64878391   1.41524555
1552.00  -5.66083587   1.41794542
1553.00  -5.67289492   1.42064864
1554.00  -5.68496107   1.42335523
1555.00  -5.69703431   1.42606518
1556.00  -5.70911465   1.42877848
1557.00  -5.72120209   1.43149516
1558.00  -5.73329662   1.43421520
1559.00  -5.74539823   1.43693860
1560.00  -5.75750694   1.43966538
1561.00  -5.76962274   1.44239553
1562.00  -5.78174563   1.44512905
1563.00  -5.79387560   1.44786595
1564.00  -5.80601266   1.45060622
1565.00  -5.81815680   1.45334988
1566.00  -5.83030803   1.45609691
1567.00  -5.84246634   1.45884733
1568.00  -5.85463173   1.46160113
1569.00  -5.86680419   1.46435832
1570.00  -5.87898374   1.46711889
1571.00  -5.89117036   1.46988286
1572.00  -5.90336406   1.47265022
1573.00  -5.91556483   1.47542097
1574.00  -5.92777267   1.47819512
1575.00  -5.93998759   1.48097266
1576.00  -5.95220957   1.48375361
1577.00  -5.96443863   1.48653795
1578.00  -5.97667475   1.48932570
1579.00  -5.98891794   1.49211686
1580.00  -6.00116820   1.49491142
1581.00  -6.01342551   1.49770939
1582.00  -6.02568990   1.50051077
1583.00  -6.03796134   1.50331556
1584.00  -6.05023984   1.50612376
1585.00  -6.06252541   1.50893538
1586.00  -6.07481803   1.51175042
1587.00  -6.08711771   1.51456888
1588.00  -6.09942444   1.51739076
1589.00  -6.11173823   1.52021606
1590.00  -6.12405907   1.52304479
1591.00  -6.13638696   1.52587694
1592.00  -6.14872190   1.52871253
1593.00  -6.16106389   1.53155154
1594.00  -6.17341293   1.53439399
1595.00  -6.18576901   1.53723987
1596.00  -6.19813214   1.54008918
1597.00  -6.21050232   1.54294194
1598.00  -6.22287954   1.54579813
1599.00  -6.23526380   1.54865776
1600.00  -6.24765509   1.55152084
1601.00  -6.26005343   1.55438737
1602.00  -6.27245881   1.55725734
1603.00  -6.28487122   1.56013075
1604.00  -6.29729067   1.56300762
1605.00  -6.30971715   1.56588795
1606.00  -6.32215066   1.56877172
1607.00  -6.33459120   1.57165895
1608.00  -6.34703878   1.57454964
1609.00  -6.35949338   1.57744379
1610.00  -6.37195501   1.58034140
1611.00  -6.38442367   1.58324248
1612.00  -6.39689935   1.58614702
1613.00  -6.40938206   1.58905502
1614.00  -6.42187179   1.59196650
1615.00  -6.43436854   1.59488145
1616.00  -6.44687231   1.59779986
1617.00  -6.45938309   1.60072176
1618.00  -6.47190090   1.60364712
1619.00  -6.48442572   1.60657597
1620.00  -6.49695756   1.60950830
1621.00  -6.50949641   1.61244410
1622.00  -6.52204227   1.61538339
1623.00  -6.53459514   1.61832617
1624.00  -6.54715502   1.62127243
1625.00  -6.55972191   1.62422218
1626.00  -6.57229581   1.62717542
1627.00  -6.58487672   1.63013216
1628.00  -6.59746462   1.63309239
1629.00  -6.61005954   1.63605611
1630.00  -6.62266145   1.63902333
1631.00  -6.63527036   1.64199405
1632.00  -6.64788628   1.64496828
1633.00  -6.66050919   1.64794600
1634.00  -6.67313910   1.65092723
1635.00  -6.68577600   1.65391197
1636.00  -6.69841990   1.65690022
1637.00  -6.71107079   1.65989197
1638.00  -6.72372867   1.66288724
1639.00  -6.73639354   1.66588603
1640.00  -6.74906541   1.66888832
1641.00  -6.76174425   1.67189414
1642.00  -6.77443009   1.67490348
1643.00  -6.78712291   1.67791633
1644.00  -6.79982272   1.68093271
1645.00  -6.81252951   1.68395262
1646.00  -6.82524328   1.68697605
1647.00  -6.83796402   1.69000301
1648.00  -6.85069175   1.69303350
1649.00  -6.86342646   1.69606752
1650.00  -6.87616814   1.69910507
1651.00  -6.88891680   1.70214617
1652.00  -6.90167243   1.70519079
1653.00  -6.91443503   1.70823896
1654.00  -6.92720460   1.71129067
1655.00  -6.93998115   1.71434592
1656.00  -6.95276466   1.71740472
1657.00  -6.96555513   1.72046706
1658.00  -6.97835258   1.72353295
1659.00  -6.99115699   1.72660239
1660.00  -7.00396836   1.72967538
1661.00  -7.01678669   1.73275193
1662.00  -7.02961199   1.73583203
1663.00  -7.04244424   1.73891569
1664.00  -7.05528345   1.74200290
1665.00  -7.06812962   1.74509368
1666.00  -7.08098274   1.74818802
1667.00  -7.09384282   1.75128592
1668.00  -7.10670985   1.75438739
1669.00  -7.11958383   1.75749243
1670.00  -7.13246476   1.76060104
1671.00  -7.14535264   1.76371322
1672.00  -7.15824747   1.76682897
1673.00  -7.17114925   1.76994830
1674.00  -7.18405796   1.77307120
1675.00  -7.19697363   1.77619768
1676.00  -7.20989623   1.77932774
1677.00  -7.22282578   1.78246139
1678.00  -7.23576226   1.78559862
1679.00  -7.24870569   1.78873943
1680.00  -7.26165605   1.79188383
1681.00  -7.27461334   1.79503182
1682.00  -7.28757757   1.79818340
1683.00  -7.30054874   1.80133858
1684.00  -7.31352683   1.80449735
1685.00  -7.32651186   1.80765971
1686.00  -7.33950381   1.81082567
1687.00  -7.35250270   1.81399524
1688.00  -7.36550851   1.81716840
1689.00  -7.37852124   1.82034517
1690.00  -7.39154090   1.82352554
1691.00  -7.40456748   1.82670952
1692.00  -7.41760098   1.82989711
1693.00  -7.43064140   1.83308831
1694.00  -7.44368874   1.83628312
1695.00  -7.45674300   1.83948154
1696.00  -7.46980418   1.84268358
1697.00  -7.48287226   1.84588924
1698.00  -7.49594727   1.84909852
1699.00  -7.50902918   1.85231142
1700.00  -7.52211800   1.85552794
1701.00  -7.53521374   1.85874808
1702.00  -7.54831638   1.86197186
1703.00  -7.56142592   1.86519926
1704.00  -7.57454238   1.86843029
1705.00  -7.58766573   1.87166495
1706.00  -7.60079599   1.87490324
1707.00  -7.61393316   1.87814517
1708.00  -7.62707722   1.88139074
1709.00  -7.64022818   1.88463995
1710.00  -7.65338603   1.88789279
1711.00  -7.66655079   1.89114928
1712.00  -7.67972243   1.89440942
1713.00  -7.69290098   1.89767319
1714.00  -7.70608641   1.90094062
1715.00  -7.71927873   1.90421170
1716.00  -7.73247795   1.90748642
1717.00  -7.74568405   1.91076480
1718.00  -7.75889703   1.91404683
1719.00  -7.77211691   1.91733252
1720.00  -7.78534366   1.92062187
1721.00  -7.79857730   1.92391488
1722.00  -7.81181782   1.92721155
1723.00  -7.82506523   1.93051188
1724.00  -7.83831951   1.93381588
1725.00  -7.85158066   1.93712354
1726.00  -7.86484869   1.94043487
1727.00  -7.87812360   1.94374988
1728.00  -7.89140538   1.94706855
1729.00  -7.90469404   1.95039090
1730.00  -7.91798956   1.95371693
1731.00  -7.93129195   1.95704663
1732.00  -7.94460121   1.96038001
1733.00  -7.95791734   1.96371707
1734.00  -7.97124033   1.96705781
1735.00  -7.98457019   1.97040224
1736.00  -7.99790691   1.97375036
1737.00  -8.01125049   1.97710216
1738.00  -8.02460093   1.98045765
1739.00  -8.03795822   1.98381683
1740.00  -8.05132238   1.98717971
1741.00  -8.06469339   1.99054628
1742.00  -8.07807126   1.99391654
1743.00  -8.09145597   1.99729051
1744.00  -8.10484754   2.00066817
1745.00  -8.11824596   2.00404954
1746.00  -8.13165123   2.00743461
1747.00  -8.14506335   2.01082339
1748.00  -8.15848232   2.01421587
1749.00  -8.17190812   2.01761206
1750.00  -8.18534078   2.02101196
1751.00  -8.19878027   2.02441557
1752.00  -8.21222661   2.02782290
1753.00  -8.22567978   2.03123394
1754.00  -8.23913980   2.03464870
1755.00  -8.25260665   2.03806718
1756.00  -8.26608033   2.04148938
1757.00  -8.27956085   2.04491530
1758.00  -8.29304820   2.04834495
1759.00  -8.30654239   2.05177832
1760.00  -8.32004340   2.05521542
1761.00  -8.33355125   2.05865625
1762.00  -8.34706592   2.06210081
1763.00  -8.36058741   2.06554911
1764.00  -8.37411573   2.06900113
1765.00  -8.38765088   2.07245690
1766.00  -8.40119284   2.07591640
1767.00  -8.41474163   2.07937964
1768.00  -8.42829724   2.08284663
1769.00  -8.44185966   2.08631735
1770.00  -8.45542890   2.08979183
1771.00  -8.46900495   2.09327004
1772.00  -8.48258782   2.09675201
1773.00  -8.49617750   2.10023773
1774.00  -8.50977400   2.10372720
1775.00  -8.52337730   2.10722042
1776.00  -8.53698741   2.11071740
1777.00  -8.55060432   2.11421813
1778.00  -8.56422805   2.11772263
1779.00  -8.57785857   2.12123088
1780.00  -8.59149590   2.12474290
1781.00  -8.60514003   2.12825868
1782.00  -8.61879096   2.13177822
1783.00  -8.63244869   2.13530154
1784.00  -8.64611322   2.13882862
1785.00  -8.65978454   2.14235947
1786.00  -8.67346266   2.14589410
1787.00  -8.68714757   2.14943249
1788.00  -8.70083927   2.15297467
1789.00  -8.71453776   2.15652062
1790.00  -8.72824304   2.16007035
1791.00  -8.74195511   2.16362387
1792.00  -8.75567397   2.16718116
1793.00  -8.76939961   2.17074224
1794.00  -8.78313203   2.17430711
1795.00  -8.79687124   2.17787576
1796.00  -8.81061723   2.18144821
1797.00  -8.82436999   2.18502444
1798.00  -8.83812954   2.18860447
1799.00  -8.85189586   2.19218829
1800.00  -8.86566895   2.19577591
1801.00  -8.87944882   2.19936733
1802.00  -8.89323546   2.20296255
1803.00  -8.90702888   2.20656157
1804.00  -8.92082906   2.21016439
1805.00  -8.93463601   2.21377101
1806.00  -8.94844973   2.21738145
1807.00  -8.96227021   2.22099569
1808.00  -8.97609746   2.22461374
1809.00  -8.98993147   2.22823560
1810.00  -9.00377225   2.23186128
1811.00  -9.01761978   2.23549077
1812.00  -9.03147407   2.23912408
1813.00  -9.04533512   2.24276121
1814.00  -9.05920292   2.24640215
1815.00  -9.07307748   2.25004692
1816.00  -9.08695879   2.25369552
1817.00  -9.10084686   2.25734793
1818.00  -9.11474167   2.26100418
1819.00  -9.12864323   2.26466425
1820.00  -9.14255154   2.26832816
1821.00  -9.15646660   2.27199589
1822.00  -9.17038840   2.27566746
1823.00  -9.18431694   2.27934287
1824.00  -9.19825223   2.28302211
1825.00  -9.21219426   2.28670519
1826.00  -9.22614302   2.29039211
1827.00  -9.24009853   2.29408287
1828.00  -9.25406077   2.29777748
1829.00  -9.26802974   2.30147593
1830.00  -9.28200545   2.30517823
1831.00  -9.29598789   2.30888438
1832.00  -9.30997706   2.31259438
1833.00  -9.32397296   2.31630824
1834.00  -9.33797559   2.32002594
1835.00  -9.35198495   2.32374750
1836.00  -9.36600103   2.32747292
1837.00  -9.38002383   2.33120220
1838.00  -9.39405336   2.33493534
1839.00  -9.40808960   2.33867234
1840.00  -9.42213257   2.34241321
1841.00  -9.43618226   2.34615794
1842.00  -9.45023866   2.34990654
1843.00  -9.46430178   2.35365900
1844.00  -9.47837161   2.35741534
1845.00  -9.49244815   2.36117555
1846.00  -9.50653141   2.36493964
1847.00  -9.52062137   2.36870760
1848.00  -9.53471804   2.37247944
1849.00  -9.54882142   2.37625515
1850.00  -9.56293151   2.38003475
1851.00  -9.57704830   2.38381823
1852.00  -9.59117179   2.38760560
1853.00  -9.60530198   2.39139685
1854.00  -9.61943888   2.39519199
1855.00  -9.63358247   2.39899102
1856.00  -9.64773276   2.40279393
1857.00  -9.66188974   2.40660075
1858.00  -9.67605342   2.41041145
1859.00  -9.69022379   2.41422605
1860.00  -9.70440086   2.41804455
1861.00  -9.71858461   2.42186695
1862.00  -9.73277505   2.42569325
1863.00  -9.74697218   2.42952345
1864.00  -9.76117599   2.43335755
1865.00  -9.77538649   2.43719556
1866.00  -9.78960367   2.44103748
1867.00  -9.80382754   2.44488331
1868.00  -9.81805808   2.44873305
1869.00  -9.83229530   2.45258670
1870.00  -9.84653920   2.45644427
1871.00  -9.86078978   2.46030575
1872.00  -9.87504703   2.46417115
1873.00  -9.88931095   2.46804047
1874.00  -9.90358154   2.47191371
1875.00  -9.91785881   2.47579087
1876.00  -9.93214274   2.47967195
1877.00  -9.94643334   2.48355696
1878.00  -9.96073060   2.48744590
1879.00  -9.97503453   2.49133877
1880.00  -9.98934513   2.49523557
1881.00 -10.00366238   2.49913630
1882.00 -10.01798630   2.50304097
1883.00 -10.03231687   2.50694957
1884.00 -10.04665410   2.51086210
1885.00 -10.06099799   2.51477858
1886.00 -10.07534853   2.51869900
1887.00 -10.08970572   2.52262336
1888.00 -10.10406957   2.52655166
1889.00 -10.11844007   2.53048391
1890.00 -10.13281721   2.53442011
1891.00 -10.14720100   2.53836026
1892.00 -10.16159144   2.54230435
1893.00 -10.17598853   2.54625240
1894.00 -10.19039225   2.55020441
1895.00 -10.20480262   2.55416036
1896.00 -10.21921963   2.55812028
1897.00 -10.23364327   2.56208415
1898.00 -10.24807356   2.56605199
1899.00 -10.26251048   2.57002378
1900.00 -10.27695403   2.57399955
1901.00 -10.29140422   2.57797927
1902.00 -10.30586103   2.58196296
1903.00 -10.32032448   2.58595063
1904.00 -10.33479456   2.58994226
1905.00 -10.34927126   2.59393786
1906.00 -10.36375460   2.59793744
1907.00 -10.37824455   2.60194099
1908.00 -10.39274113   2.60594852
1909.00 -10.40724433   2.60996003
1910.00 -10.42175415   2.61397551
1911.00 -10.43627058   2.61799498
1912.00 -10.45079364   2.62201844
1913.00 -10.46532331   2.62604588
1914.00 -10.47985960   2.63007730
1915.00 -10.49440249   2.63411271
1916.00 -10.50895200   2.63815212
1917.00 -10.52350812   2.64219551
1918.00 -10.53807085   2.64624290
1919.00 -10.55264019   2.65029428
1920.00 -10.56721613   2.65434966
1921.00 -10.58179867   2.65840903
1922.00 -10.59638782   2.66247241
1923.00 -10.61098357   2.66653979
1924.00 -10.62558592   2.67061117
1925.00 -10.64019486   2.67468655
1926.00 -10.65481041   2.67876595
1927.00 -10.66943255   2.68284934
1928.00 -10.68406128   2.68693675
1929.00 -10.69869661   2.69102817
1930.00 -10.71333853   2.69512361
1931.00 -10.72798703   2.69922305
1932.00 -10.74264213   2.70332651
1933.00 -10.75730381   2.70743400
1934.00 -10.77197208   2.71154549
1935.00 -10.78664693   2.71566101
1936.00 -10.80132837   2.71978056
1937.00 -10.81601638   2.72390412
1938.00 -10.83071098   2.72803172
1939.00 -10.84541215   2.73216334
1940.00 -10.86011990   2.73629898
1941.00 -10.87483422   2.74043866
1942.00 -10.88955512   2.74458237
1943.00 -10.90428259   2.74873012
1944.00 -10.91901664   2.75288190
1945.00 -10.93375725   2.75703771
1946.00 -10.94850443   2.76119757
1947.00 -10.96325817   2.76536147
1948.00 -10.97801848   2.76952940
1949.00 -10.99278536   2.77370138
1950.00 -11.00755879   2.77787741
1951.00 -11.02233879   2.78205748
1952.00 -11.03712535   2.78624160
1953.00 -11.05191846   2.79042977
1954.00 -11.06671813   2.79462199
1955.00 -11.08152435   2.79881827
1956.00 -11.09633713   2.80301860
1957.00 -11.11115646   2.80722299
1958.00 -11.12598234   2.81143143
1959.00 -11.14081477   2.81564393
1960.00 -11.15565375   2.81986050
1961.00 -11.17049927   2.82408112
1962.00 -11.18535134   2.82830581
1963.00 -11.20020995   2.83253457
1964.00 -11.21507510   2.83676740
1965.00 -11.22994679   2.84100429
1966.00 -11.24482503   2.84524525
1967.00 -11.25970979   2.84949029
1968.00 -11.27460110   2.85373940
1969.00 -11.28949894   2.85799259
1970.00 -11.30440331   2.86224985
1971.00 -11.31931421   2.86651119
1972.00 -11.33423164   2.87077661
1973.00 -11.34915560   2.87504612
1974.00 -11.36408609   2.87931970
1975.00 -11.37902310   2.88359737
1976.00 -11.39396664   2.88787913
1977.00 -11.40891670   2.89216498
1978.00 -11.42387328   2.89645492
1979.00 -11.43883638   2.90074894
1980.00 -11.45380600   2.90504707
1981.00 -11.46878213   2.90934928
1982.00 -11.48376478   2.91365559
1983.00 -11.49875395   2.91796600
1984.00 -11.51374962   2.92228051
1985.00 -11.52875181   2.92659912
1986.00 -11.54376051   2.93092183
1987.00 -11.55877571   2.93524865
1988.00 -11.57379742   2.93957957
1989.00 -11.58882563   2.94391460
1990.00 -11.60386035   2.94825374
1991.00 -11.61890157   2.95259699
1992.00 -11.63394929   2.95694435
1993.00 -11.64900351   2.96129582
1994.00 -11.66406423   2.96565141
1995.00 -11.67913144   2.97001112
1996.00 -11.69420515   2.97437494
1997.00 -11.70928535   2.97874289
1998.00 -11.72437204   2.98311495
1999.00 -11.73946522   2.98749114
2000.00 -11.75456489   2.99187146
