wavelength(nm)         real         imag
200.00   3.78310032   0.00223416
201.00   3.78192884   0.00226784
202.00   3.78075152   0.00230185
203.00   3.77956836   0.00233619
204.00   3.77837937   0.00237088
205.00   3.77718455   0.00240591
206.00   3.77598389   0.00244128
207.00   3.77477740   0.00247699
208.00   3.77356508   0.00251306
209.00   3.77234692   0.00254947
210.00   3.77112293   0.00258623
211.00   3.76989311   0.00262334
212.00   3.76865745   0.00266081
213.00   3.76741596   0.00269863
214.00   3.76616864   0.00273680
215.00   3.76491549   0.00277534
216.00   3.76365650   0.00281423
217.00   3.76239168   0.00285349
218.00   3.76112103   0.00289311
219.00   3.75984455   0.00293309
220.00   3.75856224   0.00297345
221.00   3.75727409   0.00301417
222.00   3.75598011   0.00305525
223.00   3.75468031   0.00309672
224.00   3.75337467   0.00313855
225.00   3.75206319   0.00318076
226.00   3.75074589   0.00322334
227.00   3.74942276   0.00326631
228.00   3.74809380   0.00330965
229.00   3.74675900   0.00335338
230.00   3.74541838   0.00339749
231.00   3.74407193   0.00344198
232.00   3.74271964   0.00348686
233.00   3.74136153   0.00353213
234.00   3.73999758   0.00357779
235.00   3.73862781   0.00362384
236.00   3.73725221   0.00367028
237.00   3.73587078   0.00371712
238.00   3.73448351   0.00376435
239.00   3.73309042   0.00381198
240.00   3.73169151   0.00386002
241.00   3.73028676   0.00390845
242.00   3.72887618   0.00395729
243.00   3.72745978   0.00400653
244.00   3.72603754   0.00405618
245.00   3.72460948   0.00410624
246.00   3.72317559   0.00415671
247.00   3.72173588   0.00420758
248.00   3.72029033   0.00425888
249.00   3.71883896   0.00431058
250.00   3.71738176   0.00436271
251.00   3.71591874   0.00441525
252.00   3.71444988   0.00446821
253.00   3.71297520   0.00452159
254.00   3.71149470   0.00457540
255.00   3.71000836   0.00462963
256.00   3.70851620   0.00468429
257.00   3.70701822   0.00473938
258.00   3.70551441   0.00479489
259.00   3.70400477   0.00485084
260.00   3.70248931   0.00490722
261.00   3.70096802   0.00496404
262.00   3.69944090   0.00502129
263.00   3.69790797   0.00507898
264.00   3.69636920   0.00513712
265.00   3.69482461   0.00519569
266.00   3.69327420   0.00525470
267.00   3.69171796   0.00531416
268.00   3.69015590   0.00537407
269.00   3.68858801   0.00543443
270.00   3.68701430   0.00549523
271.00   3.68543477   0.00555649
272.00   3.68384941   0.00561820
273.00   3.68225823   0.00568037
274.00   3.68066123   0.00574299
275.00   3.67905840   0.00580607
276.00   3.67744975   0.00586961
277.00   3.67583527   0.00593361
278.00   3.67421498   0.00599807
279.00   3.67258886   0.00606300
280.00   3.67095692   0.00612840
281.00   3.66931916   0.00619427
282.00   3.66767557   0.00626060
283.00   3.66602617   0.00632741
284.00   3.66437094   0.00639468
285.00   3.66270989   0.00646244
286.00   3.66104302   0.00653067
287.00   3.65937033   0.00659938
288.00   3.65769182   0.00666857
289.00   3.65600748   0.00673824
290.00   3.65431733   0.00680839
291.00   3.65262136   0.00687903
292.00   3.65091956   0.00695015
293.00   3.64921195   0.00702177
294.00   3.64749852   0.00709387
295.00   3.64577927   0.00716646
296.00   3.64405419   0.00723955
297.00   3.64232330   0.00731313
298.00   3.64058659   0.00738721
299.00   3.63884407   0.00746179
300.00   3.63709572   0.00753687
301.00   3.63534155   0.00761245
302.00   3.63358157   0.00768853
303.00   3.63181577   0.00776511
304.00   3.63004415   0.00784221
305.00   3.62826671   0.00791981
306.00   3.62648346   0.00799792
307.00   3.62469439   0.00807654
308.00   3.62289950   0.00815568
309.00   3.62109880   0.00823533
310.00   3.61929228   0.00831549
311.00   3.61747994   0.00839618
312.00   3.61566178   0.00847738
313.00   3.61383781   0.00855911
314.00   3.61200803   0.00864136
315.00   3.61017243   0.00872413
316.00   3.60833101   0.00880743
317.00   3.60648378   0.00889126
318.00   3.60463073   0.00897562
319.00   3.60277187   0.00906051
320.00   3.60090719   0.00914593
321.00   3.59903670   0.00923189
322.00   3.59716040   0.00931838
323.00   3.59527828   0.00940541
324.00   3.59339034   0.00949298
325.00   3.59149660   0.00958110
326.00   3.58959704   0.00966975
327.00   3.58769166   0.00975895
328.00   3.58578048   0.00984870
329.00   3.58386348   0.00993900
330.00   3.58194067   0.01002984
331.00   3.58001204   0.01012124
332.00   3.57807761   0.01021319
333.00   3.57613736   0.01030569
334.00   3.57419130   0.01039875
335.00   3.57223943   0.01049237
336.00   3.57028175   0.01058654
337.00   3.56831826   0.01068128
338.00   3.56634895   0.01077658
339.00   3.56437384   0.01087245
340.00   3.56239291   0.01096888
341.00   3.56040618   0.01106588
342.00   3.55841363   0.01116345
343.00   3.55641528   0.01126159
344.00   3.55441112   0.01136031
345.00   3.55240114   0.01145960
346.00   3.55038536   0.01155946
347.00   3.54836377   0.01165991
348.00   3.54633637   0.01176093
349.00   3.54430316   0.01186253
350.00   3.54226414   0.01196472
351.00   3.54021932   0.01206749
352.00   3.53816869   0.01217085
353.00   3.53611225   0.01227479
354.00   3.53405000   0.01237932
355.00   3.53198194   0.01248445
356.00   3.52990808   0.01259017
357.00   3.52782841   0.01269648
358.00   3.52574294   0.01280339
359.00   3.52365166   0.01291090
360.00   3.52155457   0.01301900
361.00   3.51945168   0.01312771
362.00   3.51734298   0.01323702
363.00   3.51522848   0.01334693
364.00   3.51310817   0.01345745
365.00   3.51098206   0.01356858
366.00   3.50885014   0.01368032
367.00   3.50671242   0.01379267
368.00   3.50456889   0.01390563
369.00   3.50241957   0.01401920
370.00   3.50026443   0.01413339
371.00   3.49810350   0.01424820
372.00   3.49593676   0.01436363
373.00   3.49376421   0.01447968
374.00   3.49158587   0.01459635
375.00   3.48940172   0.01471365
376.00   3.48721177   0.01483157
377.00   3.48501602   0.01495012
378.00   3.48281446   0.01506930
379.00   3.48060711   0.01518911
380.00   3.47839395   0.01530955
381.00   3.47617499   0.01543062
382.00   3.47395024   0.01555234
383.00   3.47171968   0.01567469
384.00   3.46948332   0.01579767
385.00   3.46724116   0.01592130
386.00   3.46499320   0.01604558
387.00   3.46273944   0.01617049
388.00   3.46047988   0.01629605
389.00   3.45821453   0.01642226
390.00   3.45594337   0.01654912
391.00   3.45366642   0.01667663
392.00   3.45138366   0.01680479
393.00   3.44909511   0.01693361
394.00   3.44680076   0.01706308
395.00   3.44450062   0.01719320
396.00   3.44219467   0.01732399
397.00   3.43988293   0.01745544
398.00   3.43756540   0.01758755
399.00   3.43524206   0.01772032
400.00   3.43291293   0.01785376
401.00   3.43057801   0.01798787
402.00   3.42823729   0.01812265
403.00   3.42589077   0.01825809
404.00   3.42353846   0.01839421
405.00   3.42118035   0.01853100
406.00   3.41881644   0.01866847
407.00   3.41644675   0.01880662
408.00   3.41407126   0.01894544
409.00   3.41168997   0.01908494
410.00   3.40930289   0.01922513
411.00   3.40691002   0.01936600
412.00   3.40451135   0.01950756
413.00   3.40210690   0.01964980
414.00   3.39969664   0.01979273
415.00   3.39728060   0.01993635
416.00   3.39485876   0.02008066
417.00   3.39243114   0.02022567
418.00   3.38999772   0.02037137
419.00   3.38755851   0.02051777
420.00   3.38511350   0.02066487
421.00   3.38266271   0.02081267
422.00   3.38020613   0.02096117
423.00   3.37774375   0.02111037
424.00   3.37527559   0.02126028
425.00   3.37280164   0.02141090
426.00   3.37032189   0.02156222
427.00   3.36783636   0.02171426
428.00   3.36534504   0.02186700
429.00   3.36284793   0.02202046
430.00   3.36034503   0.02217464
431.00   3.35783635   0.02232953
432.00   3.35532187   0.02248514
433.00   3.35280161   0.02264147
434.00   3.35027556   0.02279852
435.00   3.34774373   0.02295630
436.00   3.34520610   0.02311480
437.00   3.34266269   0.02327402
438.00   3.34011350   0.02343398
439.00   3.33755852   0.02359466
440.00   3.33499775   0.02375608
441.00   3.33243120   0.02391823
442.00   3.32985886   0.02408111
443.00   3.32728074   0.02424474
444.00   3.32469683   0.02440909
445.00   3.32210714   0.02457419
446.00   3.31951166   0.02474003
447.00   3.31691041   0.02490662
448.00   3.31430336   0.02507395
449.00   3.31169054   0.02524202
450.00   3.30907193   0.02541084
451.00   3.30644754   0.02558041
452.00   3.30381737   0.02575074
453.00   3.30118141   0.02592182
454.00   3.29853967   0.02609365
455.00   3.29589216   0.02626623
456.00   3.29323886   0.02643958
457.00   3.29057978   0.02661368
458.00   3.28791492   0.02678855
459.00   3.28524428   0.02696418
460.00   3.28256786   0.02714057
461.00   3.27988566   0.02731773
462.00   3.27719768   0.02749566
463.00   3.27450392   0.02767436
464.00   3.27180438   0.02785382
465.00   3.26909906   0.02803406
466.00   3.26638797   0.02821508
467.00   3.26367110   0.02839687
468.00   3.26094845   0.02857944
469.00   3.25822002   0.02876279
470.00   3.25548582   0.02894691
471.00   3.25274584   0.02913183
472.00   3.25000008   0.02931752
473.00   3.24724855   0.02950400
474.00   3.24449124   0.02969127
475.00   3.24172815   0.02987933
476.00   3.23895929   0.03006818
477.00   3.23618466   0.03025782
478.00   3.23340425   0.03044825
479.00   3.23061806   0.03063948
480.00   3.22782611   0.03083151
481.00   3.22502838   0.03102434
482.00   3.22222487   0.03121797
483.00   3.21941559   0.03141240
484.00   3.21660054   0.03160763
485.00   3.21377972   0.03180367
486.00   3.21095313   0.03200052
487.00   3.20812076   0.03219817
488.00   3.20528262   0.03239664
489.00   3.20243871   0.03259591
490.00   3.19958903   0.03279601
491.00   3.19673358   0.03299691
492.00   3.19387236   0.03319864
493.00   3.19100536   0.03340118
494.00   3.18813260   0.03360454
495.00   3.18525407   0.03380873
496.00   3.18236977   0.03401374
497.00   3.17947970   0.03421957
498.00   3.17658387   0.03442623
499.00   3.17368226   0.03463372
500.00   3.17077489   0.03484204
501.00   3.16786175   0.03505119
502.00   3.16494284   0.03526117
503.00   3.16201817   0.03547199
504.00   3.15908773   0.03568365
505.00   3.15615152   0.03589614
506.00   3.15320955   0.03610948
507.00   3.15026181   0.03632365
508.00   3.14730830   0.03653867
509.00   3.14434903   0.03675454
510.00   3.14138400   0.03697125
511.00   3.13841320   0.03718881
512.00   3.13543664   0.03740721
513.00   3.13245432   0.03762647
514.00   3.12946623   0.03784659
515.00   3.12647238   0.03806756
516.00   3.12347276   0.03828938
517.00   3.12046739   0.03851206
518.00   3.11745625   0.03873560
519.00   3.11443935   0.03896001
520.00   3.11141669   0.03918527
521.00   3.10838826   0.03941140
522.00   3.10535408   0.03963840
523.00   3.10231414   0.03986626
524.00   3.09926843   0.04009500
525.00   3.09621697   0.04032460
526.00   3.09315975   0.04055508
527.00   3.09009676   0.04078643
528.00   3.08702802   0.04101866
529.00   3.08395352   0.04125176
530.00   3.08087327   0.04148575
531.00   3.07778725   0.04172061
532.00   3.07469548   0.04195636
533.00   3.07159795   0.04219299
534.00   3.06849467   0.04243051
535.00   3.06538562   0.04266891
536.00   3.06227083   0.04290821
537.00   3.05915027   0.04314839
538.00   3.05602396   0.04338947
539.00   3.05289190   0.04363144
540.00   3.04975408   0.04387431
541.00   3.04661051   0.04411807
542.00   3.04346118   0.04436273
543.00   3.04030610   0.04460829
544.00   3.03714526   0.04485476
545.00   3.03397868   0.04510213
546.00   3.03080634   0.04535040
547.00   3.02762825   0.04559958
548.00   3.02444440   0.04584967
549.00   3.02125481   0.04610067
550.00   3.01805946   0.04635258
551.00   3.01485836   0.04660541
552.00   3.01165151   0.04685915
553.00   3.00843892   0.04711380
554.00   3.00522057   0.04736938
555.00   3.00199647   0.04762587
556.00   2.99876662   0.04788329
557.00   2.99553103   0.04814163
558.00   2.99228969   0.04840090
559.00   2.98904259   0.04866109
560.00   2.98578975   0.04892221
561.00   2.98253117   0.04918426
562.00   2.97926683   0.04944724
563.00   2.97599675   0.04971115
564.00   2.97272092   0.04997600
565.00   2.96943935   0.05024179
566.00   2.96615203   0.05050851
567.00   2.96285897   0.05077617
568.00   2.95956016   0.05104477
569.00   2.95625561   0.05131432
570.00   2.95294531   0.05158481
571.00   2.94962927   0.05185625
572.00   2.94630748   0.05212863
573.00   2.94297996   0.05240197
574.00   2.93964669   0.05267625
575.00   2.93630767   0.05295149
576.00   2.93296292   0.05322768
577.00   2.92961242   0.05350483
578.00   2.92625619   0.05378293
579.00   2.92289421   0.05406200
580.00   2.91952649   0.05434202
581.00   2.91615303   0.05462301
582.00   2.91277383   0.05490496
583.00   2.90938889   0.05518788
584.00   2.90599821   0.05547176
585.00   2.90260180   0.05575661
586.00   2.89919964   0.05604244
587.00   2.89579175   0.05632923
588.00   2.89237812   0.05661700
589.00   2.88895875   0.05690574
590.00   2.88553365   0.05719546
591.00   2.88210281   0.05748616
592.00   2.87866623   0.05777784
593.00   2.87522392   0.05807051
594.00   2.87177587   0.05836415
595.00   2.86832209   0.05865878
596.00   2.86486257   0.05895440
597.00   2.86139732   0.05925100
598.00   2.85792633   0.05954860
599.00   2.85444961   0.05984718
600.00   2.85096716   0.06014676
601.00   2.84747898   0.06044734
602.00   2.84398506   0.06074891
603.00   2.84048541   0.06105148
604.00   2.83698003   0.06135505
605.00   2.83346892   0.06165962
606.00   2.82995207   0.06196519
607.00   2.82642950   0.06227177
608.00   2.82290120   0.06257935
609.00   2.81936716   0.06288794
610.00   2.81582740   0.06319754
611.00   2.81228191   0.06350815
612.00   2.80873069   0.06381978
613.00   2.80517374   0.06413242
614.00   2.80161107   0.06444607
615.00   2.79804266   0.06476074
616.00   2.79446853   0.06507644
617.00   2.79088868   0.06539315
618.00   2.78730309   0.06571088
619.00   2.78371178   0.06602964
620.00   2.78011475   0.06634942
621.00   2.77651199   0.06667023
622.00   2.77290351   0.06699207
623.00   2.76928930   0.06731494
624.00   2.76566937   0.06763885
625.00   2.76204371   0.06796378
626.00   2.75841233   0.06828975
627.00   2.75477523   0.06861676
628.00   2.75113241   0.06894481
629.00   2.74748386   0.06927389
630.00   2.74382959   0.06960402
631.00   2.74016961   0.06993519
632.00   2.73650390   0.07026741
633.00   2.73283247   0.07060067
634.00   2.72915532   0.07093498
635.00   2.72547245   0.07127035
636.00   2.72178386   0.07160676
637.00   2.71808956   0.07194422
638.00   2.71438953   0.07228275
639.00   2.71068379   0.07262232
640.00   2.70697233   0.07296296
641.00   2.70325515   0.07330465
642.00   2.69953226   0.07364741
643.00   2.69580365   0.07399122
644.00   2.69206932   0.07433611
645.00   2.68832928   0.07468206
646.00   2.68458352   0.07502907
647.00   2.68083205   0.07537716
648.00   2.67707486   0.07572631
649.00   2.67331196   0.07607654
650.00   2.66954335   0.07642784
651.00   2.66576902   0.07678022
652.00   2.66198899   0.07713368
653.00   2.65820323   0.07748821
654.00   2.65441177   0.07784383
655.00   2.65061460   0.07820052
656.00   2.64681171   0.07855830
657.00   2.64300312   0.07891717
658.00   2.63918881   0.07927712
659.00   2.63536879   0.07963816
660.00   2.63154307   0.08000030
661.00   2.62771163   0.08036352
662.00   2.62387449   0.08072784
663.00   2.62003164   0.08109325
664.00   2.61618308   0.08145976
665.00   2.61232881   0.08182736
666.00   2.60846884   0.08219607
667.00   2.60460316   0.08256588
668.00   2.60073178   0.08293679
669.00   2.59685469   0.08330880
670.00   2.59297189   0.08368193
671.00   2.58908339   0.08405616
672.00   2.58518918   0.08443149
673.00   2.58128927   0.08480794
674.00   2.57738366   0.08518551
675.00   2.57347235   0.08556418
676.00   2.56955533   0.08594398
677.00   2.56563261   0.08632489
678.00   2.56170418   0.08670692
679.00   2.55777006   0.08709007
680.00   2.55383024   0.08747434
681.00   2.54988471   0.08785974
682.00   2.54593349   0.08824626
683.00   2.54197656   0.08863391
684.00   2.53801394   0.08902269
685.00   2.53404561   0.08941260
686.00   2.53007159   0.08980364
687.00   2.52609187   0.09019581
688.00   2.52210645   0.09058912
689.00   2.51811534   0.09098357
690.00   2.51411853   0.09137915
691.00   2.51011602   0.09177587
692.00   2.50610782   0.09217374
693.00   2.50209392   0.09257275
694.00   2.49807433   0.09297290
695.00   2.49404904   0.09337420
696.00   2.49001806   0.09377665
697.00   2.48598138   0.09418025
698.00   2.48193901   0.09458500
699.00   2.47789095   0.09499090
700.00   2.47383720   0.09539796
701.00   2.46977775   0.09580617
702.00   2.46571261   0.09621554
703.00   2.46164179   0.09662607
704.00   2.45756527   0.09703776
705.00   2.45348306   0.09745061
706.00   2.44939516   0.09786463
707.00   2.44530157   0.09827981
708.00   2.44120230   0.09869616
709.00   2.43709733   0.09911368
710.00   2.43298668   0.09953237
711.00   2.42887034   0.09995223
712.00   2.42474831   0.10037326
713.00   2.42062060   0.10079547
714.00   2.41648720   0.10121886
715.00   2.41234811   0.10164343
716.00   2.40820334   0.10206917
717.00   2.40405288   0.10249610
718.00   2.39989674   0.10292421
719.00   2.39573492   0.10335350
720.00   2.39156741   0.10378398
721.00   2.38739422   0.10421565
722.00   2.38321535   0.10464851
723.00   2.37903080   0.10508256
724.00   2.37484056   0.10551780
725.00   2.37064464   0.10595424
726.00   2.36644304   0.10639188
727.00   2.36223576   0.10683071
728.00   2.35802280   0.10727074
729.00   2.35380417   0.10771197
730.00   2.34957985   0.10815440
731.00   2.34534985   0.10859804
732.00   2.34111418   0.10904288
733.00   2.33687283   0.10948893
734.00   2.33262580   0.10993619
735.00   2.32837310   0.11038466
736.00   2.32411472   0.11083434
737.00   2.31985066   0.11128524
738.00   2.31558093   0.11173735
739.00   2.31130552   0.11219067
740.00   2.30702444   0.11264522
741.00   2.30273769   0.11310098
742.00   2.29844526   0.11355797
743.00   2.29414716   0.11401618
744.00   2.28984338   0.11447562
745.00   2.28553394   0.11493628
746.00   2.28121882   0.11539817
747.00   2.27689803   0.11586128
748.00   2.27257157   0.11632563
749.00   2.26823944   0.11679122
750.00   2.26390165   0.11725803
751.00   2.25955818   0.11772609
752.00   2.25520904   0.11819538
753.00   2.25085424   0.11866590
754.00   2.24649376   0.11913767
755.00   2.24212762   0.11961069
756.00   2.23775582   0.12008494
757.00   2.23337834   0.12056044
758.00   2.22899520   0.12103719
759.00   2.22460640   0.12151519
760.00   2.22021193   0.12199443
761.00   2.21581180   0.12247493
762.00   2.21140600   0.12295669
763.00   2.20699454   0.12343969
764.00   2.20257741   0.12392396
765.00   2.19815462   0.12440948
766.00   2.19372617   0.12489626
767.00   2.18929206   0.12538430
768.00   2.18485229   0.12587361
769.00   2.18040686   0.12636418
770.00   2.17595577   0.12685601
771.00   2.17149901   0.12734912
772.00   2.16703660   0.12784349
773.00   2.16256853   0.12833914
774.00   2.15809480   0.12883605
775.00   2.15361541   0.12933424
776.00   2.14913037   0.12983371
777.00   2.14463967   0.13033445
778.00   2.14014331   0.13083647
779.00   2.13564130   0.13133978
780.00   2.13113363   0.13184436
781.00   2.12662031   0.13235023
782.00   2.12210133   0.13285738
783.00   2.11757670   0.13336582
784.00   2.11304641   0.13387555
785.00   2.10851047   0.13438657
786.00   2.10396888   0.13489888
787.00   2.09942164   0.13541248
788.00   2.09486874   0.13592738
789.00   2.09031020   0.13644357
790.00   2.08574600   0.13696106
791.00   2.08117616   0.13747985
792.00   2.07660066   0.13799994
793.00   2.07201952   0.13852134
794.00   2.06743273   0.13904404
795.00   2.06284029   0.13956804
796.00   2.05824220   0.14009335
797.00   2.05363846   0.14061997
798.00   2.04902908   0.14114790
799.00   2.04441405   0.14167714
800.00   2.03979338   0.14220770
801.00   2.03516706   0.14273957
802.00   2.03053510   0.14327276
803.00   2.02589749   0.14380726
804.00   2.02125424   0.14434309
805.00   2.01660535   0.14488024
806.00   2.01195081   0.14541871
807.00   2.00729063   0.14595850
808.00   2.00262481   0.14649962
809.00   1.99795335   0.14704207
810.00   1.99327625   0.14758585
811.00   1.98859351   0.14813096
812.00   1.98390513   0.14867740
813.00   1.97921111   0.14922518
814.00   1.97451145   0.14977429
815.00   1.96980615   0.15032474
816.00   1.96509522   0.15087653
817.00   1.96037865   0.15142966
818.00   1.95565644   0.15198413
819.00   1.95092860   0.15253994
820.00   1.94619512   0.15309710
821.00   1.94145600   0.15365561
822.00   1.93671125   0.15421547
823.00   1.93196087   0.15477667
824.00   1.92720486   0.15533923
825.00   1.92244321   0.15590313
826.00   1.91767593   0.15646840
827.00   1.91290301   0.15703502
828.00   1.90812447   0.15760300
829.00   1.90334029   0.15817233
830.00   1.89855049   0.15874303
831.00   1.89375505   0.15931509
832.00   1.88895399   0.15988851
833.00   1.88414729   0.16046330
834.00   1.87933497   0.16103946
835.00   1.87451702   0.16161699
836.00   1.86969344   0.16219588
837.00   1.86486424   0.16277615
838.00   1.86002941   0.16335779
839.00   1.85518895   0.16394081
840.00   1.85034287   0.16452520
841.00   1.84549116   0.16511098
842.00   1.84063384   0.16569813
843.00   1.83577088   0.16628666
844.00   1.83090230   0.16687657
845.00   1.82602811   0.16746787
846.00   1.82114828   0.16806056
847.00   1.81626284   0.16865463
848.00   1.81137178   0.16925010
849.00   1.80647509   0.16984695
850.00   1.80157279   0.17044520
851.00   1.79666486   0.17104484
852.00   1.79175132   0.17164587
853.00   1.78683216   0.17224831
854.00   1.78190738   0.17285214
855.00   1.77697699   0.17345737
856.00   1.77204097   0.17406400
857.00   1.76709934   0.17467204
858.00   1.76215210   0.17528148
859.00   1.75719924   0.17589233
860.00   1.75224076   0.17650458
861.00   1.74727667   0.17711825
862.00   1.74230697   0.17773332
863.00   1.73733166   0.17834981
864.00   1.73235073   0.17896771
865.00   1.72736419   0.17958703
866.00   1.72237204   0.18020777
867.00   1.71737427   0.18082992
868.00   1.71237090   0.18145350
869.00   1.70736192   0.18207850
870.00   1.70234733   0.18270492
871.00   1.69732713   0.18333277
872.00   1.69230132   0.18396204
873.00   1.68726990   0.18459274
874.00   1.68223288   0.18522487
875.00   1.67719025   0.18585844
876.00   1.67214201   0.18649343
877.00   1.66708817   0.18712986
878.00   1.66202872   0.18776773
879.00   1.65696367   0.18840704
880.00   1.65189301   0.18904778
881.00   1.64681675   0.18968996
882.00   1.64173489   0.19033359
883.00   1.63664743   0.19097866
884.00   1.63155436   0.19162518
885.00   1.62645569   0.19227314
886.00   1.62135143   0.19292256
887.00   1.61624156   0.19357342
888.00   1.61112609   0.19422573
889.00   1.60600503   0.19487950
890.00   1.60087836   0.19553472
891.00   1.59574610   0.19619140
892.00   1.59060824   0.19684954
893.00   1.58546478   0.19750913
894.00   1.58031573   0.19817019
895.00   1.57516108   0.19883271
896.00   1.57000084   0.19949670
897.00   1.56483500   0.20016215
898.00   1.55966357   0.20082906
899.00   1.55448654   0.20149745
900.00   1.54930392   0.20216731
901.00   1.54411571   0.20283864
902.00   1.53892191   0.20351144
903.00   1.53372252   0.20418572
904.00   1.52851753   0.20486147
905.00   1.52330696   0.20553870
906.00   1.51809079   0.20621741
907.00   1.51286904   0.20689761
908.00   1.50764170   0.20757928
909.00   1.50240877   0.20826244
910.00   1.49717025   0.20894709
911.00   1.49192615   0.20963322
912.00   1.48667645   0.21032085
913.00   1.48142118   0.21100996
914.00   1.47616032   0.21170057
915.00   1.47089387   0.21239267
916.00   1.46562184   0.21308626
917.00   1.46034423   0.21378135
918.00   1.45506104   0.21447794
919.00   1.44977226   0.21517603
920.00   1.44447790   0.21587563
921.00   1.43917796   0.21657672
922.00   1.43387244   0.21727932
923.00   1.42856133   0.21798342
924.00   1.42324465   0.21868904
925.00   1.41792239   0.21939616
926.00   1.41259456   0.22010479
927.00   1.40726114   0.22081494
928.00   1.40192215   0.22152660
929.00   1.39657758   0.22223977
930.00   1.39122743   0.22295447
931.00   1.38587171   0.22367068
932.00   1.38051042   0.22438841
933.00   1.37514355   0.22510766
934.00   1.36977110   0.22582843
935.00   1.36439309   0.22655073
936.00   1.35900950   0.22727456
937.00   1.35362034   0.22799991
938.00   1.34822560   0.22872680
939.00   1.34282530   0.22945521
940.00   1.33741943   0.23018516
941.00   1.33200798   0.23091664
942.00   1.32659097   0.23164965
943.00   1.32116839   0.23238421
944.00   1.31574024   0.23312030
945.00   1.31030653   0.23385793
946.00   1.30486724   0.23459711
947.00   1.29942239   0.23533782
948.00   1.29397198   0.23608008
949.00   1.28851600   0.23682389
950.00   1.28305445   0.23756925
951.00   1.27758735   0.23831615
952.00   1.27211467   0.23906461
953.00   1.26663644   0.23981462
954.00   1.26115264   0.24056618
955.00   1.25566329   0.24131930
956.00   1.25016837   0.24207398
957.00   1.24466789   0.24283021
958.00   1.23916185   0.24358801
959.00   1.23365025   0.24434736
960.00   1.22813309   0.24510828
961.00   1.22261038   0.24587077
962.00   1.21708211   0.24663482
963.00   1.21154828   0.24740044
964.00   1.20600889   0.24816763
965.00   1.20046395   0.24893638
966.00   1.19491346   0.24970672
967.00   1.18935741   0.25047862
968.00   1.18379580   0.25125210
969.00   1.17822865   0.25202716
970.00   1.17265594   0.25280380
971.00   1.16707767   0.25358202
972.00   1.16149386   0.25436182
973.00   1.15590450   0.25514320
974.00   1.15030958   0.25592617
975.00   1.14470912   0.25671072
976.00   1.13910310   0.25749686
977.00   1.13349154   0.25828459
978.00   1.12787443   0.25907391
979.00   1.12225178   0.25986483
980.00   1.11662357   0.26065734
981.00   1.11098982   0.26145144
982.00   1.10535053   0.26224714
983.00   1.09970569   0.26304444
984.00   1.09405530   0.26384334
985.00   1.08839938   0.26464384
986.00   1.08273790   0.26544595
987.00   1.07707089   0.26624966
988.00   1.07139834   0.26705497
989.00   1.06572024   0.26786190
990.00   1.06003660   0.26867043
991.00   1.05434742   0.26948057
992.00   1.04865271   0.27029233
993.00   1.04295245   0.27110570
994.00   1.03724666   0.27192069
995.00   1.03153533   0.27273729
996.00   1.02581846   0.27355551
997.00   1.02009605   0.27437535
998.00   1.01436811   0.27519682
999.00   1.00863464   0.27601990
1000.00   1.00289563   0.27684461
1001.00   0.99715108   0.27767095
1002.00   0.99140100   0.27849891
1003.00   0.98564539   0.27932851
1004.00   0.97988425   0.28015973
1005.00   0.97411758   0.28099259
1006.00   0.96834537   0.28182708
1007.00   0.96256764   0.28266321
1008.00   0.95678437   0.28350097
1009.00   0.95099558   0.28434037
1010.00   0.94520126   0.28518141
1011.00   0.93940141   0.28602409
1012.00   0.93359603   0.28686842
1013.00   0.92778512   0.28771439
1014.00   0.92196869   0.28856201
1015.00   0.91614674   0.28941127
1016.00   0.91031926   0.29026218
1017.00   0.90448626   0.29111475
1018.00   0.89864773   0.29196896
1019.00   0.89280368   0.29282483
1020.00   0.88695411   0.29368235
1021.00   0.88109901   0.29454153
1022.00   0.87523840   0.29540237
1023.00   0.86937226   0.29626487
1024.00   0.86350061   0.29712903
1025.00   0.85762343   0.29799486
1026.00   0.85174074   0.29886234
1027.00   0.84585253   0.29973150
1028.00   0.83995880   0.30060232
1029.00   0.83405956   0.30147480
1030.00   0.82815480   0.30234896
1031.00   0.82224452   0.30322480
1032.00   0.81632873   0.30410230
1033.00   0.81040743   0.30498148
1034.00   0.80448061   0.30586234
1035.00   0.79854828   0.30674487
1036.00   0.79261044   0.30762908
1037.00   0.78666708   0.30851498
1038.00   0.78071822   0.30940256
1039.00   0.77476384   0.31029182
1040.00   0.76880395   0.31118276
1041.00   0.76283856   0.31207540
1042.00   0.75686766   0.31296972
1043.00   0.75089125   0.31386573
1044.00   0.74490933   0.31476344
1045.00   0.73892191   0.31566283
1046.00   0.73292898   0.31656392
1047.00   0.72693054   0.31746671
1048.00   0.72092660   0.31837120
1049.00   0.71491716   0.31927738
1050.00   0.70890221   0.32018527
1051.00   0.70288176   0.32109486
1052.00   0.69685581   0.32200615
1053.00   0.69082436   0.32291914
1054.00   0.68478740   0.32383385
1055.00   0.67874495   0.32475026
1056.00   0.67269700   0.32566838
1057.00   0.66664355   0.32658821
1058.00   0.66058460   0.32750976
1059.00   0.65452015   0.32843302
1060.00   0.64845020   0.32935799
1061.00   0.64237476   0.33028469
1062.00   0.63629383   0.33121310
1063.00   0.63020740   0.33214323
1064.00   0.62411547   0.33307508
1065.00   0.61801805   0.33400866
1066.00   0.61191514   0.33494396
1067.00   0.60580673   0.33588099
1068.00   0.59969284   0.33681975
1069.00   0.59357345   0.33776024
1070.00   0.58744857   0.33870245
1071.00   0.58131821   0.33964640
1072.00   0.57518235   0.34059208
1073.00   0.56904101   0.34153950
1074.00   0.56289417   0.34248866
1075.00   0.55674185   0.34343955
1076.00   0.55058405   0.34439219
1077.00   0.54442076   0.34534656
1078.00   0.53825198   0.34630268
1079.00   0.53207772   0.34726054
1080.00   0.52589797   0.34822015
1081.00   0.51971274   0.34918151
1082.00   0.51352203   0.35014461
1083.00   0.50732584   0.35110947
1084.00   0.50112416   0.35207608
1085.00   0.49491701   0.35304444
1086.00   0.48870437   0.35401455
1087.00   0.48248626   0.35498643
1088.00   0.47626267   0.35596006
1089.00   0.47003360   0.35693545
1090.00   0.46379905   0.35791260
1091.00   0.45755902   0.35889151
1092.00   0.45131352   0.35987219
1093.00   0.44506255   0.36085463
1094.00   0.43880610   0.36183884
1095.00   0.43254417   0.36282482
1096.00   0.42627677   0.36381257
1097.00   0.42000390   0.36480209
1098.00   0.41372556   0.36579338
1099.00   0.40744175   0.36678645
1100.00   0.40115246   0.36778129
1101.00   0.39485771   0.36877792
1102.00   0.38855748   0.36977632
1103.00   0.38225179   0.37077650
1104.00   0.37594063   0.37177846
1105.00   0.36962400   0.37278221
1106.00   0.36330191   0.37378774
1107.00   0.35697435   0.37479505
1108.00   0.35064133   0.37580416
1109.00   0.34430284   0.37681505
1110.00   0.33795888   0.37782774
1111.00   0.33160946   0.37884222
1112.00   0.32525458   0.37985849
1113.00   0.31889424   0.38087656
1114.00   0.31252844   0.38189642
1115.00   0.30615718   0.38291809
1116.00   0.29978045   0.38394155
1117.00   0.29339827   0.38496681
1118.00   0.28701063   0.38599388
1119.00   0.28061753   0.38702275
1120.00   0.27421897   0.38805343
1121.00   0.26781496   0.38908592
1122.00   0.26140549   0.39012021
1123.00   0.25499057   0.39115632
1124.00   0.24857019   0.39219423
1125.00   0.24214436   0.39323396
1126.00   0.23571307   0.39427551
1127.00   0.22927633   0.39531887
1128.00   0.22283414   0.39636405
1129.00   0.21638650   0.39741104
1130.00   0.20993341   0.39845986
1131.00   0.20347487   0.39951050
1132.00   0.19701088   0.40056297
1133.00   0.19054144   0.40161726
1134.00   0.18406656   0.40267338
1135.00   0.17758622   0.40373132
1136.00   0.17110044   0.40479110
1137.00   0.16460922   0.40585270
1138.00   0.15811255   0.40691614
1139.00   0.15161043   0.40798141
1140.00   0.14510288   0.40904852
1141.00   0.13858988   0.41011747
1142.00   0.13207143   0.41118825
1143.00   0.12554755   0.41226088
1144.00   0.11901823   0.41333534
1145.00   0.11248346   0.41441165
1146.00   0.10594326   0.41548981
1147.00   0.09939761   0.41656981
1148.00   0.09284653   0.41765165
1149.00   0.08629001   0.41873535
1150.00   0.07972806   0.41982090
1151.00   0.07316067   0.42090830
1152.00   0.06658784   0.42199755
1153.00   0.06000958   0.42308866
1154.00   0.05342589   0.42418162
1155.00   0.04683676   0.42527644
1156.00   0.04024220   0.42637312
1157.00   0.03364220   0.42747167
1158.00   0.02703678   0.42857207
1159.00   0.02042593   0.42967434
1160.00   0.01380964   0.43077847
1161.00   0.00718793   0.43188447
1162.00   0.00056079   0.43299234
1163.00  -0.00607178   0.43410208
1164.00  -0.01270977   0.43521369
1165.00  -0.01935319   0.43632717
1166.00  -0.02600204   0.43744253
1167.00  -0.03265631   0.43855976
1168.00  -0.03931601   0.43967887
1169.00  -0.04598113   0.44079986
1170.00  -0.05265167   0.44192273
1171.00  -0.05932763   0.44304748
1172.00  -0.06600902   0.44417411
1173.00  -0.07269582   0.44530263
1174.00  -0.07938805   0.44643303
1175.00  -0.08608569   0.44756532
1176.00  -0.09278875   0.44869950
1177.00  -0.09949724   0.44983557
1178.00  -0.10621113   0.45097354
1179.00  -0.11293045   0.45211339
1180.00  -0.11965518   0.45325514
1181.00  -0.12638532   0.45439879
1182.00  -0.13312088   0.45554433
1183.00  -0.13986185   0.45669178
1184.00  -0.14660824   0.45784112
1185.00  -0.15336003   0.45899237
1186.00  -0.16011724   0.46014552
1187.00  -0.16687986   0.46130058
1188.00  -0.17364789   0.46245754
1189.00  -0.18042133   0.46361641
1190.00  -0.18720017   0.46477719
1191.00  -0.19398443   0.46593988
1192.00  -0.20077409   0.46710448
1193.00  -0.20756916   0.46827100
1194.00  -0.21436963   0.46943943
1195.00  -0.22117551   0.47060978
1196.00  -0.22798679   0.47178205
1197.00  -0.23480348   0.47295624
1198.00  -0.24162557   0.47413235
1199.00  -0.24845306   0.47531038
1200.00  -0.25528595   0.47649033
1201.00  -0.26212424   0.47767222
1202.00  -0.26896794   0.47885603
1203.00  -0.27581703   0.48004176
1204.00  -0.28267152   0.48122943
1205.00  -0.28953141   0.48241903
1206.00  -0.29639669   0.48361056
1207.00  -0.30326737   0.48480403
1208.00  -0.31014345   0.48599943
1209.00  -0.31702492   0.48719677
1210.00  -0.32391179   0.48839605
1211.00  -0.33080404   0.48959727
1212.00  -0.33770170   0.49080043
1213.00  -0.34460474   0.49200554
1214.00  -0.35151318   0.49321259
1215.00  -0.35842700   0.49442158
1216.00  -0.36534622   0.49563252
1217.00  -0.37227082   0.49684542
1218.00  -0.37920081   0.49806026
1219.00  -0.38613619   0.49927705
1220.00  -0.39307696   0.50049580
1221.00  -0.40002311   0.50171650
1222.00  -0.40697465   0.50293916
1223.00  -0.41393157   0.50416378
1224.00  -0.42089388   0.50539036
1225.00  -0.42786157   0.50661890
1226.00  -0.43483464   0.50784939
1227.00  -0.44181310   0.50908186
1228.00  -0.44879693   0.51031629
1229.00  -0.45578615   0.51155268
1230.00  -0.46278074   0.51279105
1231.00  -0.46978071   0.51403138
1232.00  -0.47678607   0.51527368
1233.00  -0.48379679   0.51651796
1234.00  -0.49081290   0.51776421
1235.00  -0.49783438   0.51901243
1236.00  -0.50486124   0.52026264
1237.00  -0.51189347   0.52151482
1238.00  -0.51893107   0.52276898
1239.00  -0.52597405   0.52402512
1240.00  -0.53302240   0.52528324
1241.00  -0.54007612   0.52654335
1242.00  -0.54713521   0.52780544
1243.00  -0.55419967   0.52906952
1244.00  -0.56126950   0.53033559
1245.00  -0.56834470   0.53160365
1246.00  -0.57542527   0.53287370
1247.00  -0.58251120   0.53414574
1248.00  -0.58960250   0.53541978
1249.00  -0.59669916   0.53669581
1250.00  -0.60380119   0.53797384
1251.00  -0.61090859   0.53925387
1252.00  -0.61802134   0.54053590
1253.00  -0.62513946   0.54181993
1254.00  -0.63226294   0.54310596
1255.00  -0.63939179   0.54439400
1256.00  -0.64652599   0.54568404
1257.00  -0.65366555   0.54697609
1258.00  -0.66081047   0.54827015
1259.00  -0.66796075   0.54956622
1260.00  -0.67511638   0.55086430
1261.00  -0.68227737   0.55216439
1262.00  -0.68944372   0.55346650
1263.00  -0.69661543   0.55477062
1264.00  -0.70379248   0.55607676
1265.00  -0.71097489   0.55738492
1266.00  -0.71816266   0.55869510
1267.00  -0.72535577   0.56000730
1268.00  -0.73255424   0.56132153
1269.00  -0.73975805   0.56263778
1270.00  -0.74696722   0.56395605
1271.00  -0.75418173   0.56527636
1272.00  -0.76140160   0.56659869
1273.00  -0.76862681   0.56792305
1274.00  -0.77585737   0.56924945
1275.00  -0.78309327   0.57057787
1276.00  -0.79033452   0.57190834
1277.00  -0.79758111   0.57324083
1278.00  -0.80483305   0.57457537
1279.00  -0.81209033   0.57591194
1280.00  -0.81935295   0.57725056
1281.00  -0.82662091   0.57859122
1282.00  -0.83389421   0.57993392
1283.00  -0.84117286   0.58127866
1284.00  -0.84845684   0.58262545
1285.00  -0.85574616   0.58397429
1286.00  -0.86304082   0.58532518
1287.00  -0.87034081   0.58667812
1288.00  -0.87764614   0.58803311
1289.00  -0.88495681   0.58939015
1290.00  -0.89227281   0.59074925
1291.00  -0.89959414   0.59211040
1292.00  -0.90692081   0.59347361
1293.00  -0.91425281   0.59483889
1294.00  -0.92159014   0.59620622
1295.00  -0.92893280   0.59757561
1296.00  -0.93628079   0.59894707
1297.00  -0.94363411   0.60032059
1298.00  -0.95099276   0.60169618
1299.00  -0.95835674   0.60307383
1300.00  -0.96572604   0.60445356
1301.00  -0.97310067   0.60583535
1302.00  -0.98048062   0.60721922
1303.00  -0.98786590   0.60860516
1304.00  -0.99525650   0.60999318
1305.00  -1.00265243   0.61138327
1306.00  -1.01005368   0.61277544
1307.00  -1.01746024   0.61416969
1308.00  -1.02487213   0.61556602
1309.00  -1.03228934   0.61696443
1310.00  -1.03971187   0.61836492
1311.00  -1.04713972   0.61976750
1312.00  -1.05457288   0.62117217
1313.00  -1.06201136   0.62257892
1314.00  -1.06945516   0.62398777
1315.00  -1.07690427   0.62539870
1316.00  -1.08435870   0.62681172
1317.00  -1.09181844   0.62822684
1318.00  -1.09928349   0.62964406
1319.00  -1.10675385   0.63106337
1320.00  -1.11422953   0.63248477
1321.00  -1.12171052   0.63390828
1322.00  -1.12919681   0.63533389
1323.00  -1.13668842   0.63676160
1324.00  -1.14418533   0.63819141
1325.00  -1.15168755   0.63962333
1326.00  -1.15919508   0.64105735
1327.00  -1.16670791   0.64249348
1328.00  -1.17422605   0.64393172
1329.00  -1.18174949   0.64537207
1330.00  -1.18927824   0.64681453
1331.00  -1.19681228   0.64825911
1332.00  -1.20435163   0.64970580
1333.00  -1.21189629   0.65115461
1334.00  -1.21944624   0.65260553
1335.00  -1.22700149   0.65405857
1336.00  -1.23456204   0.65551374
1337.00  -1.24212789   0.65697102
1338.00  -1.24969903   0.65843043
1339.00  -1.25727547   0.65989196
1340.00  -1.26485721   0.66135562
1341.00  -1.27244424   0.66282141
1342.00  -1.28003656   0.66428933
1343.00  -1.28763418   0.66575937
1344.00  -1.29523709   0.66723155
1345.00  -1.30284530   0.66870586
1346.00  -1.31045879   0.67018231
1347.00  -1.31807757   0.67166089
1348.00  -1.32570165   0.67314161
1349.00  -1.33333101   0.67462447
1350.00  -1.34096565   0.67610947
1351.00  -1.34860559   0.67759661
1352.00  -1.35625081   0.67908589
1353.00  -1.36390132   0.68057732
1354.00  -1.37155711   0.68207089
1355.00  -1.37921818   0.68356661
1356.00  -1.38688454   0.68506448
1357.00  -1.39455618   0.68656450
1358.00  -1.40223310   0.68806667
1359.00  -1.40991530   0.68957099
1360.00  -1.41760278   0.69107747
1361.00  -1.42529554   0.69258610
1362.00  -1.43299358   0.69409690
1363.00  -1.44069690   0.69560985
1364.00  -1.44840549   0.69712496
1365.00  -1.45611935   0.69864223
1366.00  -1.46383850   0.70016166
1367.00  -1.47156291   0.70168326
1368.00  -1.47929260   0.70320702
1369.00  -1.48702756   0.70473295
1370.00  -1.49476779   0.70626105
1371.00  -1.50251330   0.70779132
1372.00  -1.51026407   0.70932376
1373.00  -1.51802011   0.71085837
1374.00  -1.52578143   0.71239516
1375.00  -1.53354801   0.71393412
1376.00  -1.54131985   0.71547526
1377.00  -1.54909696   0.71701858
1378.00  -1.55687934   0.71856408
1379.00  -1.56466698   0.72011176
1380.00  -1.57245989   0.72166162
1381.00  -1.58025805   0.72321366
1382.00  -1.58806148   0.72476789
1383.00  -1.59587017   0.72632431
1384.00  -1.60368412   0.72788291
1385.00  -1.61150333   0.72944371
1386.00  -1.61932780   0.73100669
1387.00  -1.62715753   0.73257187
1388.00  -1.63499251   0.73413924
1389.00  -1.64283275   0.73570881
1390.00  -1.65067825   0.73728057
1391.00  -1.65852900   0.73885453
1392.00  -1.66638500   0.74043069
1393.00  -1.67424626   0.74200905
1394.00  -1.68211277   0.74358961
1395.00  -1.68998453   0.74517238
1396.00  -1.69786154   0.74675735
1397.00  -1.70574380   0.74834452
1398.00  -1.71363130   0.74993391
1399.00  -1.72152406   0.75152550
1400.00  -1.72942207   0.75311931
1401.00  -1.73732532   0.75471532
1402.00  -1.74523381   0.75631355
1403.00  -1.75314755   0.75791399
1404.00  -1.76106654   0.75951665
1405.00  -1.76899077   0.76112153
1406.00  -1.77692024   0.76272863
1407.00  -1.78485495   0.76433794
1408.00  -1.79279490   0.76594948
1409.00  -1.80074009   0.76756324
1410.00  -1.80869052   0.76917923
1411.00  -1.81664619   0.77079744
1412.00  -1.82460710   0.77241787
1413.00  -1.83257324   0.77404054
1414.00  -1.84054462   0.77566544
1415.00  -1.84852124   0.77729257
1416.00  -1.85650308   0.77892193
1417.00  -1.86449017   0.78055352
1418.00  -1.87248248   0.78218735
1419.00  -1.88048002   0.78382342
1420.00  -1.88848280   0.78546172
1421.00  -1.89649081   0.78710227
1422.00  -1.90450404   0.78874505
1423.00  -1.91252250   0.79039008
1424.00  -1.92054619   0.79203735
1425.00  -1.92857511   0.79368687
1426.00  -1.93660925   0.79533863
1427.00  -1.94464862   0.79699264
1428.00  -1.95269321   0.79864891
1429.00  -1.96074303   0.80030742
1430.00  -1.96879806   0.80196818
1431.00  -1.97685832   0.80363120
1432.00  -1.98492380   0.80529647
1433.00  -1.99299450   0.80696400
1434.00  -2.00107042   0.80863379
1435.00  -2.00915156   0.81030583
1436.00  -2.01723791   0.81198014
1437.00  -2.02532948   0.81365670
1438.00  -2.03342627   0.81533553
1439.00  -2.04152827   0.81701663
1440.00  -2.04963548   0.81869999
1441.00  -2.05774791   0.82038562
1442.00  -2.06586555   0.82207351
1443.00  -2.07398840   0.82376368
1444.00  -2.08211647   0.82545612
1445.00  -2.09024974   0.82715083
1446.00  -2.09838822   0.82884782
1447.00  -2.10653191   0.83054708
1448.00  -2.11468081   0.83224861
1449.00  -2.12283491   0.83395243
1450.00  -2.13099422   0.83565853
1451.00  -2.13915874   0.83736690
1452.00  -2.14732845   0.83907756
1453.00  -2.15550337   0.84079050
1454.00  -2.16368350   0.84250573
1455.00  -2.17186882   0.84422325
1456.00  -2.18005935   0.84594305
1457.00  -2.18825507   0.84766514
1458.00  -2.19645600   0.84938953
1459.00  -2.20466212   0.85111620
1460.00  -2.21287344   0.85284517
1461.00  -2.22108995   0.85457643
1462.00  -2.22931166   0.85630999
1463.00  -2.23753857   0.85804585
1464.00  -2.24577067   0.85978400
1465.00  -2.25400796   0.86152446
1466.00  -2.26225044   0.86326722
1467.00  -2.27049812   0.86501228
1468.00  -2.27875098   0.86675964
1469.00  -2.28700904   0.86850931
1470.00  -2.29527228   0.87026129
1471.00  -2.30354071   0.87201558
1472.00  -2.31181433   0.87377217
1473.00  -2.32009313   0.87553108
1474.00  -2.32837712   0.87729230
1475.00  -2.33666630   0.87905584
1476.00  -2.34496066   0.88082168
1477.00  -2.35326020   0.88258985
1478.00  -2.36156492   0.88436033
1479.00  -2.36987482   0.88613314
1480.00  -2.37818990   0.88790826
1481.00  -2.38651017   0.88968571
1482.00  -2.39483561   0.89146548
1483.00  -2.40316622   0.89324757
1484.00  -2.41150202   0.89503199
1485.00  -2.41984299   0.89681874
1486.00  -2.42818913   0.89860782
1487.00  -2.43654045   0.90039923
1488.00  -2.44489695   0.90219297
1489.00  -2.45325861   0.90398904
1490.00  -2.46162545   0.90578745
1491.00  -2.46999745   0.90758819
1492.00  -2.47837463   0.90939127
1493.00  -2.48675698   0.91119669
1494.00  -2.49514449   0.91300445
1495.00  -2.50353717   0.91481455
1496.00  -2.51193502   0.91662699
1497.00  -2.52033803   0.91844177
1498.00  -2.52874621   0.92025890
1499.00  -2.53715955   0.92207838
1500.00  -2.54557805   0.92390021
1501.00  -2.55400172   0.92572438
1502.00  -2.56243055   0.92755091
1503.00  -2.57086453   0.92937979
1504.00  -2.57930368   0.93121102
1505.00  -2.58774798   0.93304460
1506.00  -2.59619745   0.93488054
1507.00  -2.60465207   0.93671884
1508.00  -2.61311184   0.93855950
1509.00  -2.62157677   0.94040252
1510.00  -2.63004685   0.94224790
1511.00  -2.63852209   0.94409564
1512.00  -2.64700248   0.94594575
1513.00  -2.65548802   0.94779822
1514.00  -2.66397872   0.94965306
1515.00  -2.67247456   0.95151027
1516.00  -2.68097555   0.95336985
1517.00  -2.68948169   0.95523180
1518.00  -2.69799297   0.95709612
1519.00  -2.70650940   0.95896281
1520.00  -2.71503098   0.96083188
1521.00  -2.72355770   0.96270333
1522.00  -2.73208957   0.96457715
1523.00  -2.74062658   0.96645335
1524.00  -2.74916873   0.96833193
1525.00  -2.75771602   0.97021290
1526.00  -2.76626845   0.97209625
1527.00  -2.77482602   0.97398198
1528.00  -2.78338873   0.97587010
1529.00  -2.79195658   0.97776060
1530.00  -2.80052956   0.97965349
1531.00  -2.80910768   0.98154878
1532.00  -2.81769093   0.98344645
1533.00  -2.82627932   0.98534652
1534.00  -2.83487284   0.98724898
1535.00  -2.84347149   0.98915384
1536.00  -2.85207528   0.99106109
1537.00  -2.86068419   0.99297074
1538.00  -2.86929824   0.99488279
1539.00  -2.87791741   0.99679724
1540.00  -2.88654171   0.99871409
1541.00  -2.89517114   1.00063335
1542.00  -2.90380569   1.00255501
1543.00  -2.91244537   1.00447907
1544.00  -2.92109017   1.00640554
1545.00  -2.92974010   1.00833443
1546.00  -2.93839515   1.01026572
1547.00  -2.94705532   1.01219942
1548.00  -2.95572061   1.01413553
1549.00  -2.96439102   1.01607406
1550.00  -2.97306655   1.01801501
1551.00  -2.98174719   1.01995837
1552.00  -2.99043296   1.02190415
1553.00  -2.99912384   1.02385235
1554.00  -3.00781984   1.02580297
1555.00  -3.01652095   1.02775601
1556.00  -3.02522717   1.02971147
1557.00  -3.03393851   1.03166936
1558.00  -3.04265496   1.03362967
1559.00  -3.05137651   1.03559242
1560.00  -3.06010318   1.03755759
1561.00  -3.06883496   1.03952519
1562.00  -3.07757185   1.04149522
1563.00  -3.08631384   1.04346768
1564.00  -3.09506094   1.04544258
1565.00  -3.10381315   1.04741991
1566.00  -3.11257046   1.04939968
1567.00  -3.12133287   1.05138189
1568.00  -3.13010039   1.05336654
1569.00  -3.13887301   1.05535363
1570.00  -3.14765073   1.05734316
1571.00  -3.15643355   1.05933513
1572.00  -3.16522147   1.06132955
1573.00  -3.17401448   1.06332641
1574.00  -3.18281260   1.06532572
1575.00  -3.19161581   1.06732748
1576.00  -3.20042412   1.06933169
1577.00  -3.20923752   1.07133835
1578.00  -3.21805601   1.07334746
1579.00  -3.22687960   1.07535903
1580.00  -3.23570828   1.07737305
1581.00  -3.24454205   1.07938953
1582.00  -3.25338091   1.08140846
1583.00  -3.26222486   1.08342986
1584.00  -3.27107390   1.08545371
1585.00  -3.27992803   1.08748003
1586.00  -3.28878724   1.08950881
1587.00  -3.29765154   1.09154006
1588.00  -3.30652092   1.09357377
1589.00  -3.31539539   1.09560994
1590.00  -3.32427494   1.09764859
1591.00  -3.33315957   1.09968971
1592.00  -3.34204929   1.10173329
1593.00  -3.35094408   1.10377935
1594.00  -3.35984395   1.10582788
1595.00  -3.36874891   1.10787889
1596.00  -3.37765893   1.10993238
1597.00  -3.38657404   1.11198834
1598.00  -3.39549422   1.11404678
1599.00  -3.40441948   1.11610770
1600.00  -3.41334980   1.11817110
1601.00  -3.42228521   1.12023698
1602.00  -3.43122568   1.12230535
1603.00  -3.44017123   1.12437621
1604.00  -3.44912184   1.12644955
1605.00  -3.45807753   1.12852538
1606.00  -3.46703828   1.13060370
1607.00  -3.47600410   1.13268451
1608.00  -3.48497499   1.13476781
1609.00  -3.49395094   1.13685360
1610.00  -3.50293196   1.13894189
1611.00  -3.51191804   1.14103268
1612.00  -3.52090918   1.14312596
1613.00  -3.52990539   1.14522174
1614.00  -3.53890666   1.14732002
1615.00  -3.54791298   1.14942081
1616.00  -3.55692437   1.15152409
1617.00  -3.56594081   1.15362988
1618.00  -3.57496232   1.15573818
1619.00  -3.58398887   1.15784898
1620.00  -3.59302049   1.15996228
1621.00  -3.60205716   1.16207810
1622.00  -3.61109888   1.16419643
1623.00  -3.62014565   1.16631727
1624.00  -3.62919748   1.16844062
1625.00  -3.63825436   1.17056649
1626.00  -3.64731628   1.17269487
1627.00  -3.65638326   1.17482577
1628.00  -3.66545528   1.17695919
1629.00  -3.67453236   1.17909512
1630.00  -3.68361447   1.18123358
1631.00  -3.69270164   1.18337456
1632.00  -3.70179384   1.18551806
1633.00  -3.71089110   1.18766409
1634.00  -3.71999339   1.18981265
1635.00  -3.72910072   1.19196373
1636.00  -3.73821310   1.19411734
1637.00  -3.74733052   1.19627348
1638.00  -3.75645297   1.19843215
1639.00  -3.76558046   1.20059335
1640.00  -3.77471299   1.20275709
1641.00  -3.78385056   1.20492336
1642.00  -3.79299316   1.20709217
1643.00  -3.80214079   1.20926352
1644.00  -3.81129346   1.21143740
1645.00  -3.82045116   1.21361383
1646.00  -3.82961389   1.21579280
1647.00  -3.83878166   1.21797431
1648.00  -3.84795445   1.22015836
1649.00  -3.85713227   1.22234496
1650.00  -3.86631512   1.22453411
1651.00  -3.87550299   1.22672580
1652.00  -3.88469589   1.22892005
1653.00  -3.89389382   1.23111684
1654.00  -3.90309677   1.23331619
1655.00  -3.91230474   1.23551809
1656.00  -3.92151773   1.23772254
1657.00  -3.93073575   1.23992955
1658.00  -3.93995879   1.24213912
1659.00  -3.94918684   1.24435125
1660.00  -3.95841991   1.24656593
1661.00  -3.96765800   1.24878318
1662.00  -3.97690111   1.25100299
1663.00  -3.98614923   1.25322536
1664.00  -3.99540237   1.25545030
1665.00  -4.00466052   1.25767780
1666.00  -4.01392369   1.25990787
1667.00  -4.02319186   1.26214051
1668.00  -4.03246505   1.26437572
1669.00  -4.04174324   1.26661350
1670.00  -4.05102645   1.26885385
1671.00  -4.06031466   1.27109678
1672.00  -4.06960788   1.27334228
1673.00  -4.07890610   1.27559036
1674.00  -4.08820934   1.27784102
1675.00  -4.09751757   1.28009425
1676.00  -4.10683081   1.28235007
1677.00  -4.11614905   1.28460847
1678.00  -4.12547229   1.28686945
1679.00  -4.13480053   1.28913301
1680.00  -4.14413377   1.29139916
1681.00  -4.15347201   1.29366790
1682.00  -4.16281525   1.29593922
1683.00  -4.17216349   1.29821314
1684.00  -4.18151672   1.30048964
1685.00  -4.19087494   1.30276874
1686.00  -4.20023816   1.30505042
1687.00  -4.20960637   1.30733471
1688.00  -4.21897957   1.30962159
1689.00  -4.22835777   1.31191106
1690.00  -4.23774095   1.31420314
1691.00  -4.24712913   1.31649781
1692.00  -4.25652229   1.31879508
1693.00  -4.26592044   1.32109496
1694.00  -4.27532357   1.32339744
1695.00  -4.28473169   1.32570252
1696.00  -4.29414479   1.32801021
1697.00  -4.30356288   1.33032051
1698.00  -4.31298595   1.33263342
1699.00  -4.32241400   1.33494893
1700.00  -4.33184703   1.33726706
1701.00  -4.34128504   1.33958780
1702.00  -4.35072803   1.34191115
1703.00  -4.36017600   1.34423712
1704.00  -4.36962894   1.34656570
1705.00  -4.37908686   1.34889690
1706.00  -4.38854975   1.35123072
1707.00  -4.39801762   1.35356716
1708.00  -4.40749046   1.35590622
1709.00  -4.41696827   1.35824790
1710.00  -4.42645106   1.36059220
1711.00  -4.43593881   1.36293913
1712.00  -4.44543153   1.36528869
1713.00  -4.45492922   1.36764087
1714.00  -4.46443188   1.36999569
1715.00  -4.47393950   1.37235313
1716.00  -4.48345209   1.37471320
1717.00  -4.49296964   1.37707591
1718.00  -4.50249216   1.37944125
1719.00  -4.51201964   1.38180923
1720.00  -4.52155207   1.38417984
1721.00  -4.53108947   1.38655309
1722.00  -4.54063183   1.38892898
1723.00  -4.55017915   1.39130750
1724.00  -4.55973142   1.39368867
1725.00  -4.56928865   1.39607249
1726.00  -4.57885084   1.39845894
1727.00  -4.58841798   1.40084804
1728.00  -4.59799007   1.40323979
1729.00  -4.60756712   1.40563419
1730.00  -4.61714912   1.40803123
1731.00  -4.62673607   1.41043093
1732.00  -4.63632797   1.41283327
1733.00  -4.64592481   1.41523827
1734.00  -4.65552661   1.41764592
1735.00  -4.66513335   1.42005623
1736.00  -4.67474504   1.42246920
1737.00  -4.68436167   1.42488482
1738.00  -4.69398324   1.42730310
1739.00  -4.70360976   1.42972404
1740.00  -4.71324122   1.43214764
1741.00  -4.72287763   1.43457391
1742.00  -4.73251897   1.43700284
1743.00  -4.74216525   1.43943443
1744.00  -4.75181647   1.44186869
1745.00  -4.76147262   1.44430562
1746.00  -4.77113371   1.44674522
1747.00  -4.78079974   1.44918749
1748.00  -4.79047070   1.45163243
1749.00  -4.80014660   1.45408004
1750.00  -4.80982742   1.45653033
1751.00  -4.81951318   1.45898329
1752.00  -4.82920387   1.46143893
1753.00  -4.83889948   1.46389725
1754.00  -4.84860003   1.46635824
1755.00  -4.85830550   1.46882192
1756.00  -4.86801590   1.47128828
1757.00  -4.87773123   1.47375732
1758.00  -4.88745147   1.47622904
1759.00  -4.89717665   1.47870345
1760.00  -4.90690674   1.48118054
1761.00  -4.91664175   1.48366033
1762.00  -4.92638169   1.48614280
1763.00  -4.93612655   1.48862796
1764.00  -4.94587632   1.49111582
1765.00  -4.95563101   1.49360637
1766.00  -4.96539062   1.49609961
1767.00  -4.97515514   1.49859554
1768.00  -4.98492458   1.50109418
1769.00  -4.99469893   1.50359551
1770.00  -5.00447820   1.50609954
1771.00  -5.01426237   1.50860627
1772.00  -5.02405146   1.51111570
1773.00  -5.03384545   1.51362783
1774.00  -5.04364436   1.51614267
1775.00  -5.05344817   1.51866021
1776.00  -5.06325689   1.52118046
1777.00  -5.07307051   1.52370342
1778.00  -5.08288904   1.52622909
1779.00  -5.09271248   1.52875746
1780.00  -5.10254081   1.53128855
1781.00  -5.11237405   1.53382235
1782.00  -5.12221219   1.53635886
1783.00  -5.13205522   1.53889809
1784.00  -5.14190316   1.54144004
1785.00  -5.15175599   1.54398470
1786.00  -5.16161373   1.54653208
1787.00  -5.17147635   1.54908218
1788.00  -5.18134387   1.55163501
1789.00  -5.19121629   1.55419055
1790.00  -5.20109360   1.55674882
1791.00  -5.21097580   1.55930982
1792.00  -5.22086289   1.56187354
1793.00  -5.23075487   1.56443998
1794.00  -5.24065174   1.56700916
1795.00  -5.25055350   1.56958107
1796.00  -5.26046014   1.57215570
1797.00  -5.27037167   1.57473307
1798.00  -5.28028809   1.57731318
1799.00  -5.29020938   1.57989601
1800.00  -5.30013557   1.58248159
1801.00  -5.31006663   1.58506990
1802.00  -5.32000257   1.58766095
1803.00  -5.32994340   1.59025474
1804.00  -5.33988910   1.59285127
1805.00  -5.34983968   1.59545054
1806.00  -5.35979514   1.59805256
1807.00  -5.36975547   1.60065732
1808.00  -5.37972068   1.60326482
1809.00  -5.38969077   1.60587508
1810.00  -5.39966572   1.60848808
1811.00  -5.40964555   1.61110383
1812.00  -5.41963025   1.61372233
1813.00  -5.42961982   1.61634359
1814.00  -5.43961425   1.61896759
1815.00  -5.44961356   1.62159436
1816.00  -5.45961773   1.62422387
1817.00  -5.46962677   1.62685615
1818.00  -5.47964067   1.62949118
1819.00  -5.48965944   1.63212897
1820.00  -5.49968307   1.63476952
1821.00  -5.50971156   1.63741284
1822.00  -5.51974491   1.64005891
1823.00  -5.52978312   1.64270775
1824.00  -5.53982620   1.64535936
1825.00  -5.54987412   1.64801373
1826.00  -5.55992691   1.65067087
1827.00  -5.56998455   1.65333078
1828.00  -5.58004705   1.65599346
1829.00  -5.59011440   1.65865891
1830.00  -5.60018660   1.66132714
1831.00  -5.61026366   1.66399814
1832.00  -5.62034556   1.66667191
1833.00  -5.63043232   1.66934846
1834.00  -5.64052392   1.67202779
1835.00  -5.65062038   1.67470989
1836.00  -5.66072168   1.67739478
1837.00  -5.67082782   1.68008244
1838.00  -5.68093881   1.68277289
1839.00  -5.69105464   1.68546613
1840.00  -5.70117532   1.68816214
1841.00  -5.71130084   1.69086095
1842.00  -5.72143120   1.69356254
1843.00  -5.73156639   1.69626692
1844.00  -5.74170643   1.69897409
1845.00  -5.75185131   1.70168405
1846.00  -5.76200102   1.70439680
1847.00  -5.77215556   1.70711234
1848.00  -5.78231495   1.70983068
1849.00  -5.79247916   1.71255182
1850.00  -5.80264821   1.71527575
1851.00  -5.81282209   1.71800248
1852.00  -5.82300080   1.72073201
1853.00  -5.83318434   1.72346434
1854.00  -5.84337271   1.72619947
1855.00  -5.85356590   1.72893741
1856.00  -5.86376392   1.73167815
1857.00  -5.87396677   1.73442169
1858.00  -5.88417444   1.73716804
1859.00  -5.89438694   1.73991720
1860.00  -5.90460426   1.74266917
1861.00  -5.91482640   1.74542394
1862.00  -5.92505336   1.74818153
1863.00  -5.93528514   1.75094193
1864.00  -5.94552174   1.75370515
1865.00  -5.95576315   1.75647118
1866.00  -5.96600938   1.75924003
1867.00  -5.97626043   1.76201169
1868.00  -5.98651629   1.76478617
1869.00  -5.99677696   1.76756347
1870.00  -6.00704245   1.77034360
1871.00  -6.01731275   1.77312654
1872.00  -6.02758786   1.77591231
1873.00  -6.03786777   1.77870090
1874.00  -6.04815250   1.78149232
1875.00  -6.05844203   1.78428657
1876.00  -6.06873637   1.78708364
1877.00  -6.07903551   1.78988354
1878.00  -6.08933946   1.79268627
1879.00  -6.09964821   1.79549184
1880.00  -6.10996176   1.79830024
1881.00  -6.12028012   1.80111147
1882.00  -6.13060327   1.80392554
1883.00  -6.14093122   1.80674244
1884.00  -6.15126397   1.80956218
1885.00  -6.16160152   1.81238476
1886.00  -6.17194386   1.81521018
1887.00  -6.18229100   1.81803844
1888.00  -6.19264293   1.82086955
1889.00  -6.20299966   1.82370349
1890.00  -6.21336117   1.82654029
1891.00  -6.22372748   1.82937992
1892.00  -6.23409858   1.83222241
1893.00  -6.24447446   1.83506774
1894.00  -6.25485513   1.83791592
1895.00  -6.26524059   1.84076696
1896.00  -6.27563084   1.84362084
1897.00  -6.28602587   1.84647758
1898.00  -6.29642568   1.84933718
1899.00  -6.30683027   1.85219962
1900.00  -6.31723965   1.85506493
1901.00  -6.32765381   1.85793309
1902.00  -6.33807274   1.86080411
1903.00  -6.34849646   1.86367800
1904.00  -6.35892495   1.86655474
1905.00  -6.36935822   1.86943434
1906.00  -6.37979626   1.87231681
1907.00  -6.39023908   1.87520215
1908.00  -6.40068667   1.87809035
1909.00  -6.41113903   1.88098142
1910.00  -6.42159616   1.88387535
1911.00  -6.43205807   1.88677216
1912.00  -6.44252474   1.88967184
1913.00  -6.45299618   1.89257438
1914.00  -6.46347239   1.89547981
1915.00  -6.47395336   1.89838810
1916.00  -6.48443910   1.90129927
1917.00  -6.49492960   1.90421332
1918.00  -6.50542486   1.90713025
1919.00  -6.51592489   1.91005005
1920.00  -6.52642968   1.91297274
1921.00  -6.53693922   1.91589830
1922.00  -6.54745353   1.91882675
1923.00  -6.55797259   1.92175809
1924.00  -6.56849641   1.92469230
1925.00  -6.57902498   1.92762941
1926.00  -6.58955831   1.93056940
1927.00  -6.60009640   1.93351228
1928.00  -6.61063923   1.93645805
1929.00  -6.62118682   1.93940671
1930.00  -6.63173915   1.94235826
1931.00  -6.64229624   1.94531271
1932.00  -6.65285807   1.94827004
1933.00  -6.66342465   1.95123028
1934.00  -6.67399598   1.95419341
1935.00  -6.68457205   1.95715944
1936.00  -6.69515286   1.96012837
1937.00  -6.70573842   1.96310019
1938.00  -6.71632872   1.96607492
1939.00  -6.72692376   1.96905256
1940.00  -6.73752354   1.97203309
1941.00  -6.74812806   1.97501653
1942.00  -6.75873732   1.97800288
1943.00  -6.76935131   1.98099213
1944.00  -6.77997004   1.98398429
1945.00  -6.79059351   1.98697936
1946.00  -6.80122170   1.98997734
1947.00  -6.81185463   1.99297823
1948.00  -6.82249230   1.99598204
1949.00  -6.83313469   1.99898876
1950.00  -6.84378181   2.00199839
1951.00  -6.85443366   2.00501095
1952.00  -6.86509023   2.00802642
1953.00  -6.87575153   2.01104480
1954.00  -6.88641756   2.01406611
1955.00  -6.89708831   2.01709034
1956.00  -6.90776379   2.02011749
1957.00  -6.91844398   2.02314756
1958.00  -6.92912890   2.02618056
1959.00  -6.93981854   2.02921648
1960.00  -6.95051289   2.03225534
1961.00  -6.96121196   2.03529711
1962.00  -6.97191575   2.03834182
1963.00  -6.98262426   2.04138946
1964.00  -6.99333748   2.04444003
1965.00  -7.00405541   2.04749353
1966.00  -7.01477806   2.05054997
1967.00  -7.02550541   2.05360934
1968.00  -7.03623748   2.05667164
1969.00  -7.04697426   2.05973689
1970.00  -7.05771574   2.06280507
1971.00  -7.06846193   2.06587619
1972.00  -7.07921283   2.06895025
1973.00  -7.08996843   2.07202726
1974.00  -7.10072874   2.07510720
1975.00  -7.11149375   2.07819009
1976.00  -7.12226346   2.08127593
1977.00  -7.13303787   2.08436471
1978.00  -7.14381698   2.08745644
1979.00  -7.15460079   2.09055112
1980.00  -7.16538930   2.09364875
1981.00  -7.17618250   2.09674933
1982.00  -7.18698040   2.09985286
1983.00  -7.19778300   2.10295934
1984.00  -7.20859029   2.10606878
1985.00  -7.21940226   2.10918118
1986.00  -7.23021894   2.11229653
1987.00  -7.24104030   2.11541484
1988.00  -7.25186635   2.11853610
1989.00  -7.26269708   2.12166033
1990.00  -7.27353251   2.12478752
1991.00  -7.28437262   2.12791767
1992.00  -7.29521741   2.13105079
1993.00  -7.30606689   2.13418687
1994.00  -7.31692105   2.13732591
1995.00  -7.32777990   2.14046792
1996.00  -7.33864342   2.14361291
1997.00  -7.34951162   2.14676085
1998.00  -7.36038451   2.14991177
1999.00  -7.37126206   2.15306567
2000.00  -7.38214430   2.15622253
