wavelength(nm)         real         imag
200.00   3.77743723   0.00234240
201.00   3.77620899   0.00237770
202.00   3.77497464   0.00241336
203.00   3.77373417   0.00244937
204.00   3.77248758   0.00248573
205.00   3.77123487   0.00252246
206.00   3.76997605   0.00255954
207.00   3.76871111   0.00259699
208.00   3.76744006   0.00263480
209.00   3.76616289   0.00267297
210.00   3.76487960   0.00271152
211.00   3.76359020   0.00275043
212.00   3.76229469   0.00278971
213.00   3.76099306   0.00282936
214.00   3.75968531   0.00286939
215.00   3.75837145   0.00290979
216.00   3.75705147   0.00295057
217.00   3.75572538   0.00299172
218.00   3.75439318   0.00303326
219.00   3.75305486   0.00307519
220.00   3.75171042   0.00311749
221.00   3.75035987   0.00316018
222.00   3.74900321   0.00320326
223.00   3.74764043   0.00324673
224.00   3.74627154   0.00329059
225.00   3.74489654   0.00333485
226.00   3.74351542   0.00337950
227.00   3.74212819   0.00342454
228.00   3.74073485   0.00346998
229.00   3.73933539   0.00351583
230.00   3.73792982   0.00356207
231.00   3.73651814   0.00360872
232.00   3.73510035   0.00365578
233.00   3.73367644   0.00370324
234.00   3.73224642   0.00375111
235.00   3.73081029   0.00379939
236.00   3.72936805   0.00384808
237.00   3.72791969   0.00389719
238.00   3.72646523   0.00394671
239.00   3.72500465   0.00399665
240.00   3.72353796   0.00404701
241.00   3.72206516   0.00409779
242.00   3.72058625   0.00414900
243.00   3.71910123   0.00420062
244.00   3.71761010   0.00425268
245.00   3.71611286   0.00430516
246.00   3.71460951   0.00435807
247.00   3.71310004   0.00441142
248.00   3.71158447   0.00446519
249.00   3.71006279   0.00451941
250.00   3.70853500   0.00457405
251.00   3.70700110   0.00462914
252.00   3.70546109   0.00468467
253.00   3.70391497   0.00474064
254.00   3.70236274   0.00479705
255.00   3.70080440   0.00485391
256.00   3.69923996   0.00491122
257.00   3.69766940   0.00496897
258.00   3.69609274   0.00502718
259.00   3.69450997   0.00508584
260.00   3.69292109   0.00514495
261.00   3.69132611   0.00520452
262.00   3.68972501   0.00526454
263.00   3.68811781   0.00532503
264.00   3.68650450   0.00538598
265.00   3.68488509   0.00544739
266.00   3.68325957   0.00550926
267.00   3.68162794   0.00557160
268.00   3.67999020   0.00563441
269.00   3.67834636   0.00569769
270.00   3.67669642   0.00576144
271.00   3.67504036   0.00582567
272.00   3.67337820   0.00589037
273.00   3.67170994   0.00595555
274.00   3.67003557   0.00602120
275.00   3.66835510   0.00608734
276.00   3.66666851   0.00615396
277.00   3.66497583   0.00622106
278.00   3.66327704   0.00628865
279.00   3.66157215   0.00635672
280.00   3.65986115   0.00642528
281.00   3.65814405   0.00649434
282.00   3.65642084   0.00656389
283.00   3.65469153   0.00663393
284.00   3.65295612   0.00670447
285.00   3.65121460   0.00677551
286.00   3.64946698   0.00684704
287.00   3.64771326   0.00691908
288.00   3.64595343   0.00699162
289.00   3.64418750   0.00706466
290.00   3.64241547   0.00713822
291.00   3.64063734   0.00721228
292.00   3.63885310   0.00728685
293.00   3.63706277   0.00736193
294.00   3.63526633   0.00743753
295.00   3.63346379   0.00751364
296.00   3.63165515   0.00759026
297.00   3.62984041   0.00766741
298.00   3.62801956   0.00774508
299.00   3.62619262   0.00782327
300.00   3.62435958   0.00790198
301.00   3.62252043   0.00798122
302.00   3.62067519   0.00806099
303.00   3.61882384   0.00814129
304.00   3.61696640   0.00822211
305.00   3.61510286   0.00830347
306.00   3.61323322   0.00838537
307.00   3.61135748   0.00846780
308.00   3.60947564   0.00855077
309.00   3.60758770   0.00863428
310.00   3.60569366   0.00871833
311.00   3.60379353   0.00880292
312.00   3.60188729   0.00888806
313.00   3.59997496   0.00897375
314.00   3.59805653   0.00905998
315.00   3.59613201   0.00914676
316.00   3.59420139   0.00923410
317.00   3.59226467   0.00932199
318.00   3.59032185   0.00941043
319.00   3.58837294   0.00949944
320.00   3.58641793   0.00958900
321.00   3.58445682   0.00967912
322.00   3.58248962   0.00976980
323.00   3.58051633   0.00986105
324.00   3.57853693   0.00995286
325.00   3.57655145   0.01004524
326.00   3.57455987   0.01013820
327.00   3.57256219   0.01023172
328.00   3.57055842   0.01032581
329.00   3.56854855   0.01042048
330.00   3.56653259   0.01051573
331.00   3.56451054   0.01061155
332.00   3.56248239   0.01070795
333.00   3.56044815   0.01080494
334.00   3.55840782   0.01090251
335.00   3.55636139   0.01100066
336.00   3.55430887   0.01109940
337.00   3.55225026   0.01119873
338.00   3.55018555   0.01129865
339.00   3.54811475   0.01139916
340.00   3.54603787   0.01150026
341.00   3.54395489   0.01160196
342.00   3.54186581   0.01170426
343.00   3.53977065   0.01180715
344.00   3.53766940   0.01191065
345.00   3.53556205   0.01201475
346.00   3.53344862   0.01211945
347.00   3.53132909   0.01222476
348.00   3.52920348   0.01233067
349.00   3.52707177   0.01243720
350.00   3.52493398   0.01254434
351.00   3.52279009   0.01265209
352.00   3.52064012   0.01276045
353.00   3.51848406   0.01286943
354.00   3.51632190   0.01297903
355.00   3.51415366   0.01308925
356.00   3.51197934   0.01320009
357.00   3.50979892   0.01331155
358.00   3.50761242   0.01342364
359.00   3.50541983   0.01353635
360.00   3.50322115   0.01364970
361.00   3.50101639   0.01376367
362.00   3.49880553   0.01387827
363.00   3.49658860   0.01399351
364.00   3.49436557   0.01410939
365.00   3.49213646   0.01422590
366.00   3.48990127   0.01434305
367.00   3.48765998   0.01446084
368.00   3.48541262   0.01457927
369.00   3.48315917   0.01469835
370.00   3.48089963   0.01481807
371.00   3.47863401   0.01493844
372.00   3.47636230   0.01505946
373.00   3.47408451   0.01518113
374.00   3.47180064   0.01530346
375.00   3.46951068   0.01542644
376.00   3.46721464   0.01555007
377.00   3.46491252   0.01567436
378.00   3.46260431   0.01579931
379.00   3.46029002   0.01592493
380.00   3.45796965   0.01605120
381.00   3.45564320   0.01617815
382.00   3.45331067   0.01630575
383.00   3.45097205   0.01643403
384.00   3.44862735   0.01656298
385.00   3.44627657   0.01669260
386.00   3.44391972   0.01682289
387.00   3.44155678   0.01695385
388.00   3.43918776   0.01708550
389.00   3.43681266   0.01721782
390.00   3.43443148   0.01735083
391.00   3.43204422   0.01748451
392.00   3.42965088   0.01761888
393.00   3.42725146   0.01775394
394.00   3.42484597   0.01788968
395.00   3.42243439   0.01802611
396.00   3.42001674   0.01816324
397.00   3.41759301   0.01830105
398.00   3.41516320   0.01843956
399.00   3.41272731   0.01857877
400.00   3.41028535   0.01871867
401.00   3.40783731   0.01885927
402.00   3.40538320   0.01900058
403.00   3.40292300   0.01914259
404.00   3.40045674   0.01928530
405.00   3.39798439   0.01942872
406.00   3.39550597   0.01957285
407.00   3.39302148   0.01971768
408.00   3.39053091   0.01986323
409.00   3.38803426   0.02000950
410.00   3.38553155   0.02015647
411.00   3.38302275   0.02030417
412.00   3.38050789   0.02045258
413.00   3.37798695   0.02060171
414.00   3.37545993   0.02075157
415.00   3.37292685   0.02090215
416.00   3.37038769   0.02105345
417.00   3.36784245   0.02120549
418.00   3.36529115   0.02135825
419.00   3.36273377   0.02151174
420.00   3.36017033   0.02166596
421.00   3.35760081   0.02182092
422.00   3.35502522   0.02197661
423.00   3.35244356   0.02213305
424.00   3.34985582   0.02229022
425.00   3.34726202   0.02244813
426.00   3.34466215   0.02260679
427.00   3.34205621   0.02276618
428.00   3.33944420   0.02292633
429.00   3.33682612   0.02308722
430.00   3.33420197   0.02324887
431.00   3.33157175   0.02341126
432.00   3.32893547   0.02357441
433.00   3.32629311   0.02373832
434.00   3.32364469   0.02390298
435.00   3.32099021   0.02406839
436.00   3.31832965   0.02423457
437.00   3.31566303   0.02440151
438.00   3.31299034   0.02456922
439.00   3.31031158   0.02473768
440.00   3.30762676   0.02490692
441.00   3.30493588   0.02507693
442.00   3.30223892   0.02524770
443.00   3.29953591   0.02541925
444.00   3.29682683   0.02559157
445.00   3.29411168   0.02576467
446.00   3.29139047   0.02593854
447.00   3.28866319   0.02611319
448.00   3.28592986   0.02628863
449.00   3.28319046   0.02646485
450.00   3.28044499   0.02664185
451.00   3.27769346   0.02681963
452.00   3.27493588   0.02699821
453.00   3.27217222   0.02717757
454.00   3.26940251   0.02735773
455.00   3.26662674   0.02753868
456.00   3.26384490   0.02772042
457.00   3.26105700   0.02790296
458.00   3.25826305   0.02808630
459.00   3.25546303   0.02827043
460.00   3.25265695   0.02845537
461.00   3.24984482   0.02864111
462.00   3.24702662   0.02882766
463.00   3.24420236   0.02901501
464.00   3.24137205   0.02920318
465.00   3.23853568   0.02939215
466.00   3.23569325   0.02958193
467.00   3.23284476   0.02977253
468.00   3.22999021   0.02996394
469.00   3.22712961   0.03015617
470.00   3.22426295   0.03034922
471.00   3.22139023   0.03054309
472.00   3.21851146   0.03073778
473.00   3.21562663   0.03093329
474.00   3.21273575   0.03112964
475.00   3.20983881   0.03132680
476.00   3.20693581   0.03152480
477.00   3.20402677   0.03172363
478.00   3.20111166   0.03192329
479.00   3.19819050   0.03212378
480.00   3.19526329   0.03232511
481.00   3.19233003   0.03252728
482.00   3.18939071   0.03273029
483.00   3.18644534   0.03293414
484.00   3.18349392   0.03313883
485.00   3.18053644   0.03334437
486.00   3.17757292   0.03355075
487.00   3.17460334   0.03375798
488.00   3.17162771   0.03396606
489.00   3.16864603   0.03417499
490.00   3.16565830   0.03438478
491.00   3.16266452   0.03459542
492.00   3.15966468   0.03480691
493.00   3.15665880   0.03501927
494.00   3.15364688   0.03523248
495.00   3.15062890   0.03544656
496.00   3.14760487   0.03566150
497.00   3.14457479   0.03587730
498.00   3.14153867   0.03609398
499.00   3.13849650   0.03631152
500.00   3.13544828   0.03652993
501.00   3.13239402   0.03674921
502.00   3.12933371   0.03696937
503.00   3.12626735   0.03719040
504.00   3.12319495   0.03741231
505.00   3.12011650   0.03763510
506.00   3.11703200   0.03785877
507.00   3.11394147   0.03808332
508.00   3.11084488   0.03830875
509.00   3.10774225   0.03853508
510.00   3.10463358   0.03876228
511.00   3.10151887   0.03899038
512.00   3.09839811   0.03921937
513.00   3.09527131   0.03944925
514.00   3.09213846   0.03968003
515.00   3.08899958   0.03991170
516.00   3.08585465   0.04014427
517.00   3.08270368   0.04037774
518.00   3.07954667   0.04061211
519.00   3.07638362   0.04084739
520.00   3.07321453   0.04108356
521.00   3.07003940   0.04132065
522.00   3.06685823   0.04155864
523.00   3.06367102   0.04179754
524.00   3.06047777   0.04203736
525.00   3.05727848   0.04227809
526.00   3.05407315   0.04251973
527.00   3.05086178   0.04276229
528.00   3.04764438   0.04300577
529.00   3.04442094   0.04325016
530.00   3.04119146   0.04349548
531.00   3.03795595   0.04374173
532.00   3.03471440   0.04398889
533.00   3.03146682   0.04423699
534.00   3.02821319   0.04448601
535.00   3.02495354   0.04473597
536.00   3.02168785   0.04498685
537.00   3.01841612   0.04523867
538.00   3.01513836   0.04549143
539.00   3.01185457   0.04574512
540.00   3.00856474   0.04599975
541.00   3.00526888   0.04625533
542.00   3.00196698   0.04651184
543.00   2.99865906   0.04676930
544.00   2.99534510   0.04702770
545.00   2.99202511   0.04728706
546.00   2.98869909   0.04754736
547.00   2.98536704   0.04780861
548.00   2.98202896   0.04807081
549.00   2.97868485   0.04833397
550.00   2.97533470   0.04859809
551.00   2.97197853   0.04886316
552.00   2.96861633   0.04912919
553.00   2.96524810   0.04939619
554.00   2.96187384   0.04966414
555.00   2.95849356   0.04993306
556.00   2.95510724   0.05020295
557.00   2.95171490   0.05047381
558.00   2.94831654   0.05074563
559.00   2.94491214   0.05101843
560.00   2.94150172   0.05129220
561.00   2.93808528   0.05156694
562.00   2.93466280   0.05184266
563.00   2.93123431   0.05211936
564.00   2.92779979   0.05239704
565.00   2.92435924   0.05267570
566.00   2.92091267   0.05295534
567.00   2.91746008   0.05323597
568.00   2.91400146   0.05351759
569.00   2.91053682   0.05380019
570.00   2.90706616   0.05408379
571.00   2.90358948   0.05436837
572.00   2.90010677   0.05465395
573.00   2.89661805   0.05494053
574.00   2.89312330   0.05522810
575.00   2.88962253   0.05551667
576.00   2.88611574   0.05580624
577.00   2.88260294   0.05609682
578.00   2.87908411   0.05638840
579.00   2.87555926   0.05668098
580.00   2.87202840   0.05697457
581.00   2.86849151   0.05726917
582.00   2.86494861   0.05756478
583.00   2.86139969   0.05786140
584.00   2.85784476   0.05815904
585.00   2.85428381   0.05845769
586.00   2.85071684   0.05875736
587.00   2.84714385   0.05905805
588.00   2.84356485   0.05935976
589.00   2.83997984   0.05966249
590.00   2.83638881   0.05996624
591.00   2.83279176   0.06027103
592.00   2.82918870   0.06057684
593.00   2.82557963   0.06088368
594.00   2.82196455   0.06119155
595.00   2.81834345   0.06150045
596.00   2.81471634   0.06181039
597.00   2.81108322   0.06212136
598.00   2.80744408   0.06243337
599.00   2.80379894   0.06274642
600.00   2.80014778   0.06306052
601.00   2.79649061   0.06337565
602.00   2.79282744   0.06369183
603.00   2.78915825   0.06400906
604.00   2.78548305   0.06432733
605.00   2.78180185   0.06464666
606.00   2.77811464   0.06496703
607.00   2.77442142   0.06528846
608.00   2.77072219   0.06561095
609.00   2.76701695   0.06593449
610.00   2.76330571   0.06625909
611.00   2.75958846   0.06658475
612.00   2.75586520   0.06691147
613.00   2.75213594   0.06723925
614.00   2.74840068   0.06756810
615.00   2.74465941   0.06789802
616.00   2.74091213   0.06822900
617.00   2.73715885   0.06856105
618.00   2.73339957   0.06889418
619.00   2.72963428   0.06922838
620.00   2.72586299   0.06956366
621.00   2.72208570   0.06990001
622.00   2.71830241   0.07023744
623.00   2.71451311   0.07057595
624.00   2.71071782   0.07091554
625.00   2.70691652   0.07125622
626.00   2.70310922   0.07159798
627.00   2.69929592   0.07194083
628.00   2.69547663   0.07228477
629.00   2.69165133   0.07262980
630.00   2.68782004   0.07297592
631.00   2.68398274   0.07332314
632.00   2.68013945   0.07367145
633.00   2.67629017   0.07402085
634.00   2.67243488   0.07437136
635.00   2.66857360   0.07472297
636.00   2.66470632   0.07507568
637.00   2.66083305   0.07542949
638.00   2.65695378   0.07578441
639.00   2.65306851   0.07614044
640.00   2.64917726   0.07649758
641.00   2.64528000   0.07685582
642.00   2.64137676   0.07721518
643.00   2.63746752   0.07757566
644.00   2.63355229   0.07793725
645.00   2.62963106   0.07829996
646.00   2.62570385   0.07866378
647.00   2.62177064   0.07902873
648.00   2.61783144   0.07939480
649.00   2.61388625   0.07976200
650.00   2.60993507   0.08013032
651.00   2.60597790   0.08049977
652.00   2.60201474   0.08087034
653.00   2.59804559   0.08124205
654.00   2.59407045   0.08161490
655.00   2.59008933   0.08198887
656.00   2.58610222   0.08236399
657.00   2.58210912   0.08274024
658.00   2.57811003   0.08311763
659.00   2.57410496   0.08349616
660.00   2.57009390   0.08387583
661.00   2.56607685   0.08425665
662.00   2.56205382   0.08463862
663.00   2.55802481   0.08502173
664.00   2.55398981   0.08540600
665.00   2.54994883   0.08579141
666.00   2.54590186   0.08617798
667.00   2.54184892   0.08656570
668.00   2.53778998   0.08695458
669.00   2.53372507   0.08734462
670.00   2.52965418   0.08773582
671.00   2.52557730   0.08812817
672.00   2.52149445   0.08852170
673.00   2.51740561   0.08891638
674.00   2.51331079   0.08931224
675.00   2.50921000   0.08970926
676.00   2.50510322   0.09010745
677.00   2.50099047   0.09050681
678.00   2.49687174   0.09090735
679.00   2.49274703   0.09130906
680.00   2.48861634   0.09171195
681.00   2.48447968   0.09211602
682.00   2.48033704   0.09252126
683.00   2.47618843   0.09292769
684.00   2.47203384   0.09333531
685.00   2.46787327   0.09374410
686.00   2.46370673   0.09415409
687.00   2.45953422   0.09456526
688.00   2.45535573   0.09497762
689.00   2.45117127   0.09539118
690.00   2.44698084   0.09580592
691.00   2.44278444   0.09622187
692.00   2.43858206   0.09663901
693.00   2.43437371   0.09705735
694.00   2.43015939   0.09747689
695.00   2.42593910   0.09789763
696.00   2.42171284   0.09831957
697.00   2.41748062   0.09874272
698.00   2.41324242   0.09916708
699.00   2.40899825   0.09959264
700.00   2.40474812   0.10001942
701.00   2.40049202   0.10044741
702.00   2.39622995   0.10087661
703.00   2.39196191   0.10130703
704.00   2.38768791   0.10173866
705.00   2.38340794   0.10217151
706.00   2.37912201   0.10260559
707.00   2.37483011   0.10304088
708.00   2.37053225   0.10347740
709.00   2.36622843   0.10391515
710.00   2.36191864   0.10435412
711.00   2.35760288   0.10479432
712.00   2.35328117   0.10523575
713.00   2.34895349   0.10567841
714.00   2.34461985   0.10612231
715.00   2.34028025   0.10656744
716.00   2.33593469   0.10701381
717.00   2.33158317   0.10746142
718.00   2.32722569   0.10791027
719.00   2.32286225   0.10836036
720.00   2.31849286   0.10881170
721.00   2.31411750   0.10926428
722.00   2.30973618   0.10971811
723.00   2.30534891   0.11017318
724.00   2.30095568   0.11062951
725.00   2.29655650   0.11108709
726.00   2.29215136   0.11154593
727.00   2.28774026   0.11200602
728.00   2.28332321   0.11246736
729.00   2.27890020   0.11292997
730.00   2.27447124   0.11339384
731.00   2.27003633   0.11385897
732.00   2.26559546   0.11432536
733.00   2.26114865   0.11479302
734.00   2.25669587   0.11526194
735.00   2.25223715   0.11573214
736.00   2.24777248   0.11620360
737.00   2.24330185   0.11667634
738.00   2.23882528   0.11715036
739.00   2.23434275   0.11762564
740.00   2.22985428   0.11810221
741.00   2.22535986   0.11858005
742.00   2.22085949   0.11905918
743.00   2.21635317   0.11953959
744.00   2.21184090   0.12002128
745.00   2.20732269   0.12050425
746.00   2.20279853   0.12098852
747.00   2.19826843   0.12147407
748.00   2.19373238   0.12196092
749.00   2.18919038   0.12244905
750.00   2.18464244   0.12293849
751.00   2.18008856   0.12342921
752.00   2.17552873   0.12392124
753.00   2.17096296   0.12441456
754.00   2.16639125   0.12490918
755.00   2.16181360   0.12540511
756.00   2.15723000   0.12590234
757.00   2.15264047   0.12640088
758.00   2.14804499   0.12690072
759.00   2.14344358   0.12740187
760.00   2.13883622   0.12790434
761.00   2.13422293   0.12840811
762.00   2.12960369   0.12891320
763.00   2.12497852   0.12941961
764.00   2.12034742   0.12992733
765.00   2.11571037   0.13043637
766.00   2.11106739   0.13094674
767.00   2.10641847   0.13145842
768.00   2.10176362   0.13197143
769.00   2.09710283   0.13248577
770.00   2.09243611   0.13300143
771.00   2.08776345   0.13351842
772.00   2.08308486   0.13403675
773.00   2.07840034   0.13455640
774.00   2.07370989   0.13507739
775.00   2.06901350   0.13559972
776.00   2.06431118   0.13612338
777.00   2.05960293   0.13664838
778.00   2.05488876   0.13717472
779.00   2.05016865   0.13770241
780.00   2.04544261   0.13823143
781.00   2.04071064   0.13876181
782.00   2.03597275   0.13929353
783.00   2.03122892   0.13982660
784.00   2.02647917   0.14036102
785.00   2.02172349   0.14089680
786.00   2.01696189   0.14143392
787.00   2.01219436   0.14197241
788.00   2.00742091   0.14251225
789.00   2.00264153   0.14305345
790.00   1.99785622   0.14359601
791.00   1.99306500   0.14413993
792.00   1.98826785   0.14468522
793.00   1.98346477   0.14523187
794.00   1.97865578   0.14577989
795.00   1.97384086   0.14632928
796.00   1.96902002   0.14688004
797.00   1.96419326   0.14743217
798.00   1.95936058   0.14798567
799.00   1.95452199   0.14854055
800.00   1.94967747   0.14909681
801.00   1.94482703   0.14965445
802.00   1.93997068   0.15021347
803.00   1.93510841   0.15077387
804.00   1.93024022   0.15133565
805.00   1.92536611   0.15189882
806.00   1.92048609   0.15246338
807.00   1.91560016   0.15302932
808.00   1.91070831   0.15359666
809.00   1.90581054   0.15416539
810.00   1.90090686   0.15473551
811.00   1.89599727   0.15530702
812.00   1.89108176   0.15587994
813.00   1.88616035   0.15645425
814.00   1.88123302   0.15702996
815.00   1.87629978   0.15760708
816.00   1.87136063   0.15818560
817.00   1.86641557   0.15876552
818.00   1.86146460   0.15934685
819.00   1.85650772   0.15992960
820.00   1.85154493   0.16051375
821.00   1.84657623   0.16109931
822.00   1.84160163   0.16168628
823.00   1.83662112   0.16227468
824.00   1.83163470   0.16286448
825.00   1.82664238   0.16345571
826.00   1.82164415   0.16404836
827.00   1.81664002   0.16464243
828.00   1.81162998   0.16523792
829.00   1.80661404   0.16583484
830.00   1.80159220   0.16643318
831.00   1.79656445   0.16703296
832.00   1.79153081   0.16763416
833.00   1.78649126   0.16823679
834.00   1.78144581   0.16884086
835.00   1.77639445   0.16944637
836.00   1.77133720   0.17005331
837.00   1.76627405   0.17066169
838.00   1.76120500   0.17127150
839.00   1.75613006   0.17188276
840.00   1.75104921   0.17249547
841.00   1.74596247   0.17310962
842.00   1.74086983   0.17372521
843.00   1.73577130   0.17434226
844.00   1.73066687   0.17496075
845.00   1.72555654   0.17558069
846.00   1.72044032   0.17620209
847.00   1.71531821   0.17682495
848.00   1.71019020   0.17744926
849.00   1.70505630   0.17807502
850.00   1.69991651   0.17870225
851.00   1.69477083   0.17933094
852.00   1.68961925   0.17996109
853.00   1.68446179   0.18059271
854.00   1.67929843   0.18122579
855.00   1.67412919   0.18186034
856.00   1.66895406   0.18249636
857.00   1.66377303   0.18313385
858.00   1.65858612   0.18377282
859.00   1.65339333   0.18441326
860.00   1.64819464   0.18505517
861.00   1.64299007   0.18569857
862.00   1.63777962   0.18634344
863.00   1.63256328   0.18698979
864.00   1.62734106   0.18763763
865.00   1.62211295   0.18828695
866.00   1.61687896   0.18893776
867.00   1.61163908   0.18959006
868.00   1.60639332   0.19024384
869.00   1.60114169   0.19089912
870.00   1.59588417   0.19155588
871.00   1.59062077   0.19221415
872.00   1.58535149   0.19287390
873.00   1.58007633   0.19353516
874.00   1.57479529   0.19419791
875.00   1.56950838   0.19486217
876.00   1.56421558   0.19552793
877.00   1.55891691   0.19619519
878.00   1.55361236   0.19686396
879.00   1.54830194   0.19753423
880.00   1.54298564   0.19820602
881.00   1.53766347   0.19887931
882.00   1.53233542   0.19955412
883.00   1.52700150   0.20023044
884.00   1.52166171   0.20090828
885.00   1.51631604   0.20158763
886.00   1.51096450   0.20226850
887.00   1.50560709   0.20295090
888.00   1.50024381   0.20363481
889.00   1.49487466   0.20432025
890.00   1.48949964   0.20500721
891.00   1.48411875   0.20569570
892.00   1.47873199   0.20638572
893.00   1.47333936   0.20707727
894.00   1.46794087   0.20777036
895.00   1.46253651   0.20846497
896.00   1.45712628   0.20916112
897.00   1.45171019   0.20985881
898.00   1.44628823   0.21055803
899.00   1.44086041   0.21125880
900.00   1.43542672   0.21196111
901.00   1.42998718   0.21266496
902.00   1.42454176   0.21337035
903.00   1.41909049   0.21407729
904.00   1.41363336   0.21478578
905.00   1.40817036   0.21549583
906.00   1.40270150   0.21620742
907.00   1.39722679   0.21692056
908.00   1.39174621   0.21763526
909.00   1.38625978   0.21835152
910.00   1.38076748   0.21906933
911.00   1.37526934   0.21978870
912.00   1.36976533   0.22050964
913.00   1.36425547   0.22123213
914.00   1.35873975   0.22195620
915.00   1.35321817   0.22268182
916.00   1.34769075   0.22340902
917.00   1.34215747   0.22413778
918.00   1.33661833   0.22486812
919.00   1.33107334   0.22560003
920.00   1.32552250   0.22633351
921.00   1.31996581   0.22706857
922.00   1.31440327   0.22780521
923.00   1.30883488   0.22854342
924.00   1.30326064   0.22928322
925.00   1.29768054   0.23002460
926.00   1.29209460   0.23076756
927.00   1.28650282   0.23151211
928.00   1.28090518   0.23225824
929.00   1.27530170   0.23300596
930.00   1.26969237   0.23375528
931.00   1.26407720   0.23450619
932.00   1.25845618   0.23525869
933.00   1.25282932   0.23601278
934.00   1.24719661   0.23676847
935.00   1.24155806   0.23752576
936.00   1.23591367   0.23828466
937.00   1.23026344   0.23904515
938.00   1.22460736   0.23980725
939.00   1.21894544   0.24057095
940.00   1.21327769   0.24133626
941.00   1.20760409   0.24210317
942.00   1.20192466   0.24287170
943.00   1.19623939   0.24364184
944.00   1.19054828   0.24441359
945.00   1.18485133   0.24518695
946.00   1.17914854   0.24596194
947.00   1.17343992   0.24673854
948.00   1.16772547   0.24751676
949.00   1.16200518   0.24829660
950.00   1.15627906   0.24907806
951.00   1.15054710   0.24986115
952.00   1.14480931   0.25064587
953.00   1.13906569   0.25143221
954.00   1.13331623   0.25222018
955.00   1.12756095   0.25300978
956.00   1.12179984   0.25380102
957.00   1.11603289   0.25459389
958.00   1.11026012   0.25538839
959.00   1.10448152   0.25618453
960.00   1.09869709   0.25698232
961.00   1.09290683   0.25778174
962.00   1.08711074   0.25858280
963.00   1.08130883   0.25938551
964.00   1.07550110   0.26018987
965.00   1.06968754   0.26099587
966.00   1.06386816   0.26180352
967.00   1.05804295   0.26261282
968.00   1.05221192   0.26342377
969.00   1.04637506   0.26423637
970.00   1.04053239   0.26505064
971.00   1.03468389   0.26586655
972.00   1.02882958   0.26668413
973.00   1.02296944   0.26750336
974.00   1.01710349   0.26832426
975.00   1.01123172   0.26914682
976.00   1.00535412   0.26997105
977.00   0.99947072   0.27079694
978.00   0.99358149   0.27162450
979.00   0.98768645   0.27245373
980.00   0.98178559   0.27328463
981.00   0.97587892   0.27411720
982.00   0.96996644   0.27495145
983.00   0.96404814   0.27578738
984.00   0.95812403   0.27662498
985.00   0.95219410   0.27746426
986.00   0.94625837   0.27830522
987.00   0.94031682   0.27914787
988.00   0.93436946   0.27999219
989.00   0.92841630   0.28083821
990.00   0.92245732   0.28168591
991.00   0.91649254   0.28253530
992.00   0.91052194   0.28338638
993.00   0.90454554   0.28423915
994.00   0.89856334   0.28509362
995.00   0.89257533   0.28594978
996.00   0.88658151   0.28680764
997.00   0.88058189   0.28766720
998.00   0.87457646   0.28852846
999.00   0.86856524   0.28939142
1000.00   0.86254820   0.29025608
1001.00   0.85652537   0.29112245
1002.00   0.85049674   0.29199052
1003.00   0.84446230   0.29286031
1004.00   0.83842207   0.29373180
1005.00   0.83237603   0.29460500
1006.00   0.82632420   0.29547992
1007.00   0.82026657   0.29635655
1008.00   0.81420314   0.29723490
1009.00   0.80813391   0.29811496
1010.00   0.80205889   0.29899675
1011.00   0.79597807   0.29988025
1012.00   0.78989146   0.30076548
1013.00   0.78379905   0.30165243
1014.00   0.77770085   0.30254111
1015.00   0.77159685   0.30343152
1016.00   0.76548707   0.30432365
1017.00   0.75937149   0.30521752
1018.00   0.75325012   0.30611311
1019.00   0.74712296   0.30701045
1020.00   0.74099001   0.30790951
1021.00   0.73485127   0.30881031
1022.00   0.72870674   0.30971286
1023.00   0.72255643   0.31061714
1024.00   0.71640033   0.31152316
1025.00   0.71023844   0.31243093
1026.00   0.70407077   0.31334044
1027.00   0.69789731   0.31425170
1028.00   0.69171806   0.31516470
1029.00   0.68553304   0.31607946
1030.00   0.67934223   0.31699597
1031.00   0.67314563   0.31791423
1032.00   0.66694326   0.31883424
1033.00   0.66073510   0.31975601
1034.00   0.65452116   0.32067954
1035.00   0.64830145   0.32160483
1036.00   0.64207595   0.32253188
1037.00   0.63584468   0.32346069
1038.00   0.62960762   0.32439126
1039.00   0.62336480   0.32532360
1040.00   0.61711619   0.32625771
1041.00   0.61086181   0.32719359
1042.00   0.60460165   0.32813123
1043.00   0.59833572   0.32907065
1044.00   0.59206401   0.33001185
1045.00   0.58578653   0.33095481
1046.00   0.57950328   0.33189956
1047.00   0.57321426   0.33284608
1048.00   0.56691946   0.33379438
1049.00   0.56061890   0.33474447
1050.00   0.55431256   0.33569633
1051.00   0.54800046   0.33664999
1052.00   0.54168259   0.33760542
1053.00   0.53535895   0.33856265
1054.00   0.52902954   0.33952166
1055.00   0.52269436   0.34048247
1056.00   0.51635342   0.34144507
1057.00   0.51000672   0.34240946
1058.00   0.50365425   0.34337565
1059.00   0.49729601   0.34434364
1060.00   0.49093202   0.34531342
1061.00   0.48456226   0.34628501
1062.00   0.47818674   0.34725840
1063.00   0.47180545   0.34823359
1064.00   0.46541841   0.34921059
1065.00   0.45902561   0.35018939
1066.00   0.45262705   0.35117000
1067.00   0.44622273   0.35215242
1068.00   0.43981265   0.35313666
1069.00   0.43339681   0.35412270
1070.00   0.42697522   0.35511056
1071.00   0.42054788   0.35610024
1072.00   0.41411477   0.35709174
1073.00   0.40767592   0.35808505
1074.00   0.40123131   0.35908019
1075.00   0.39478094   0.36007715
1076.00   0.38832483   0.36107593
1077.00   0.38186296   0.36207654
1078.00   0.37539535   0.36307898
1079.00   0.36892198   0.36408324
1080.00   0.36244286   0.36508934
1081.00   0.35595799   0.36609727
1082.00   0.34946738   0.36710703
1083.00   0.34297102   0.36811863
1084.00   0.33646891   0.36913206
1085.00   0.32996105   0.37014733
1086.00   0.32344745   0.37116445
1087.00   0.31692811   0.37218340
1088.00   0.31040302   0.37320420
1089.00   0.30387219   0.37422684
1090.00   0.29733561   0.37525133
1091.00   0.29079330   0.37627766
1092.00   0.28424524   0.37730585
1093.00   0.27769144   0.37833589
1094.00   0.27113190   0.37936778
1095.00   0.26456663   0.38040152
1096.00   0.25799561   0.38143712
1097.00   0.25141886   0.38247457
1098.00   0.24483637   0.38351389
1099.00   0.23824814   0.38455507
1100.00   0.23165418   0.38559810
1101.00   0.22505448   0.38664301
1102.00   0.21844905   0.38768977
1103.00   0.21183788   0.38873841
1104.00   0.20522098   0.38978891
1105.00   0.19859835   0.39084128
1106.00   0.19196999   0.39189552
1107.00   0.18533590   0.39295164
1108.00   0.17869608   0.39400963
1109.00   0.17205052   0.39506950
1110.00   0.16539924   0.39613124
1111.00   0.15874223   0.39719486
1112.00   0.15207950   0.39826037
1113.00   0.14541104   0.39932776
1114.00   0.13873685   0.40039703
1115.00   0.13205693   0.40146818
1116.00   0.12537130   0.40254123
1117.00   0.11867993   0.40361616
1118.00   0.11198285   0.40469298
1119.00   0.10528004   0.40577170
1120.00   0.09857152   0.40685231
1121.00   0.09185727   0.40793481
1122.00   0.08513730   0.40901921
1123.00   0.07841161   0.41010551
1124.00   0.07168020   0.41119370
1125.00   0.06494307   0.41228380
1126.00   0.05820023   0.41337580
1127.00   0.05145167   0.41446971
1128.00   0.04469740   0.41556552
1129.00   0.03793741   0.41666324
1130.00   0.03117170   0.41776287
1131.00   0.02440028   0.41886440
1132.00   0.01762315   0.41996785
1133.00   0.01084031   0.42107322
1134.00   0.00405175   0.42218050
1135.00  -0.00274251   0.42328969
1136.00  -0.00954249   0.42440081
1137.00  -0.01634818   0.42551384
1138.00  -0.02315957   0.42662880
1139.00  -0.02997667   0.42774568
1140.00  -0.03679948   0.42886448
1141.00  -0.04362800   0.42998521
1142.00  -0.05046222   0.43110787
1143.00  -0.05730215   0.43223246
1144.00  -0.06414778   0.43335897
1145.00  -0.07099912   0.43448742
1146.00  -0.07785615   0.43561781
1147.00  -0.08471890   0.43675013
1148.00  -0.09158734   0.43788438
1149.00  -0.09846148   0.43902058
1150.00  -0.10534132   0.44015872
1151.00  -0.11222686   0.44129879
1152.00  -0.11911811   0.44244081
1153.00  -0.12601504   0.44358478
1154.00  -0.13291768   0.44473069
1155.00  -0.13982601   0.44587855
1156.00  -0.14674004   0.44702836
1157.00  -0.15365976   0.44818012
1158.00  -0.16058518   0.44933383
1159.00  -0.16751629   0.45048950
1160.00  -0.17445309   0.45164712
1161.00  -0.18139559   0.45280670
1162.00  -0.18834377   0.45396824
1163.00  -0.19529765   0.45513174
1164.00  -0.20225721   0.45629720
1165.00  -0.20922247   0.45746462
1166.00  -0.21619341   0.45863401
1167.00  -0.22317004   0.45980537
1168.00  -0.23015236   0.46097869
1169.00  -0.23714037   0.46215398
1170.00  -0.24413406   0.46333125
1171.00  -0.25113343   0.46451049
1172.00  -0.25813849   0.46569170
1173.00  -0.26514923   0.46687488
1174.00  -0.27216565   0.46806005
1175.00  -0.27918776   0.46924719
1176.00  -0.28621555   0.47043632
1177.00  -0.29324901   0.47162742
1178.00  -0.30028816   0.47282051
1179.00  -0.30733298   0.47401559
1180.00  -0.31438349   0.47521265
1181.00  -0.32143967   0.47641170
1182.00  -0.32850152   0.47761274
1183.00  -0.33556905   0.47881577
1184.00  -0.34264226   0.48002079
1185.00  -0.34972114   0.48122781
1186.00  -0.35680570   0.48243682
1187.00  -0.36389592   0.48364784
1188.00  -0.37099182   0.48486085
1189.00  -0.37809339   0.48607586
1190.00  -0.38520064   0.48729287
1191.00  -0.39231355   0.48851189
1192.00  -0.39943213   0.48973291
1193.00  -0.40655638   0.49095593
1194.00  -0.41368629   0.49218097
1195.00  -0.42082187   0.49340802
1196.00  -0.42796312   0.49463707
1197.00  -0.43511004   0.49586814
1198.00  -0.44226261   0.49710123
1199.00  -0.44942086   0.49833633
1200.00  -0.45658476   0.49957345
1201.00  -0.46375433   0.50081259
1202.00  -0.47092956   0.50205374
1203.00  -0.47811045   0.50329692
1204.00  -0.48529700   0.50454213
1205.00  -0.49248920   0.50578935
1206.00  -0.49968707   0.50703861
1207.00  -0.50689060   0.50828989
1208.00  -0.51409978   0.50954320
1209.00  -0.52131462   0.51079855
1210.00  -0.52853511   0.51205593
1211.00  -0.53576126   0.51331534
1212.00  -0.54299306   0.51457678
1213.00  -0.55023051   0.51584027
1214.00  -0.55747362   0.51710579
1215.00  -0.56472238   0.51837336
1216.00  -0.57197679   0.51964296
1217.00  -0.57923685   0.52091461
1218.00  -0.58650256   0.52218831
1219.00  -0.59377392   0.52346405
1220.00  -0.60105092   0.52474184
1221.00  -0.60833357   0.52602168
1222.00  -0.61562187   0.52730357
1223.00  -0.62291582   0.52858751
1224.00  -0.63021541   0.52987351
1225.00  -0.63752064   0.53116156
1226.00  -0.64483151   0.53245167
1227.00  -0.65214803   0.53374384
1228.00  -0.65947019   0.53503807
1229.00  -0.66679799   0.53633436
1230.00  -0.67413144   0.53763271
1231.00  -0.68147052   0.53893313
1232.00  -0.68881523   0.54023562
1233.00  -0.69616559   0.54154017
1234.00  -0.70352159   0.54284679
1235.00  -0.71088322   0.54415549
1236.00  -0.71825048   0.54546626
1237.00  -0.72562338   0.54677910
1238.00  -0.73300192   0.54809401
1239.00  -0.74038608   0.54941101
1240.00  -0.74777588   0.55073008
1241.00  -0.75517131   0.55205123
1242.00  -0.76257238   0.55337447
1243.00  -0.76997907   0.55469978
1244.00  -0.77739139   0.55602719
1245.00  -0.78480934   0.55735667
1246.00  -0.79223292   0.55868825
1247.00  -0.79966212   0.56002192
1248.00  -0.80709695   0.56135767
1249.00  -0.81453741   0.56269552
1250.00  -0.82198349   0.56403546
1251.00  -0.82943519   0.56537750
1252.00  -0.83689252   0.56672164
1253.00  -0.84435547   0.56806787
1254.00  -0.85182404   0.56941620
1255.00  -0.85929823   0.57076664
1256.00  -0.86677804   0.57211917
1257.00  -0.87426347   0.57347382
1258.00  -0.88175452   0.57483056
1259.00  -0.88925119   0.57618942
1260.00  -0.89675347   0.57755038
1261.00  -0.90426137   0.57891346
1262.00  -0.91177489   0.58027865
1263.00  -0.91929402   0.58164595
1264.00  -0.92681876   0.58301536
1265.00  -0.93434911   0.58438690
1266.00  -0.94188508   0.58576055
1267.00  -0.94942666   0.58713632
1268.00  -0.95697385   0.58851421
1269.00  -0.96452665   0.58989422
1270.00  -0.97208505   0.59127636
1271.00  -0.97964907   0.59266062
1272.00  -0.98721869   0.59404702
1273.00  -0.99479392   0.59543554
1274.00  -1.00237475   0.59682618
1275.00  -1.00996119   0.59821897
1276.00  -1.01755324   0.59961388
1277.00  -1.02515089   0.60101093
1278.00  -1.03275413   0.60241012
1279.00  -1.04036299   0.60381144
1280.00  -1.04797744   0.60521490
1281.00  -1.05559749   0.60662051
1282.00  -1.06322314   0.60802825
1283.00  -1.07085439   0.60943814
1284.00  -1.07849124   0.61085018
1285.00  -1.08613368   0.61226436
1286.00  -1.09378172   0.61368069
1287.00  -1.10143536   0.61509917
1288.00  -1.10909459   0.61651980
1289.00  -1.11675941   0.61794259
1290.00  -1.12442983   0.61936752
1291.00  -1.13210584   0.62079462
1292.00  -1.13978744   0.62222387
1293.00  -1.14747463   0.62365528
1294.00  -1.15516741   0.62508885
1295.00  -1.16286578   0.62652458
1296.00  -1.17056974   0.62796248
1297.00  -1.17827928   0.62940254
1298.00  -1.18599441   0.63084477
1299.00  -1.19371513   0.63228916
1300.00  -1.20144143   0.63373573
1301.00  -1.20917332   0.63518446
1302.00  -1.21691079   0.63663537
1303.00  -1.22465384   0.63808845
1304.00  -1.23240247   0.63954371
1305.00  -1.24015669   0.64100114
1306.00  -1.24791648   0.64246075
1307.00  -1.25568185   0.64392255
1308.00  -1.26345280   0.64538652
1309.00  -1.27122933   0.64685267
1310.00  -1.27901144   0.64832102
1311.00  -1.28679912   0.64979154
1312.00  -1.29459237   0.65126426
1313.00  -1.30239121   0.65273916
1314.00  -1.31019561   0.65421625
1315.00  -1.31800559   0.65569554
1316.00  -1.32582113   0.65717701
1317.00  -1.33364225   0.65866069
1318.00  -1.34146894   0.66014655
1319.00  -1.34930120   0.66163462
1320.00  -1.35713903   0.66312489
1321.00  -1.36498243   0.66461735
1322.00  -1.37283139   0.66611202
1323.00  -1.38068592   0.66760890
1324.00  -1.38854601   0.66910797
1325.00  -1.39641167   0.67060926
1326.00  -1.40428289   0.67211275
1327.00  -1.41215968   0.67361846
1328.00  -1.42004202   0.67512637
1329.00  -1.42792993   0.67663650
1330.00  -1.43582340   0.67814884
1331.00  -1.44372243   0.67966340
1332.00  -1.45162702   0.68118017
1333.00  -1.45953716   0.68269916
1334.00  -1.46745286   0.68422037
1335.00  -1.47537412   0.68574381
1336.00  -1.48330093   0.68726947
1337.00  -1.49123330   0.68879735
1338.00  -1.49917122   0.69032746
1339.00  -1.50711470   0.69185979
1340.00  -1.51506372   0.69339436
1341.00  -1.52301830   0.69493115
1342.00  -1.53097843   0.69647018
1343.00  -1.53894411   0.69801144
1344.00  -1.54691533   0.69955494
1345.00  -1.55489211   0.70110067
1346.00  -1.56287443   0.70264864
1347.00  -1.57086230   0.70419885
1348.00  -1.57885571   0.70575130
1349.00  -1.58685467   0.70730600
1350.00  -1.59485917   0.70886293
1351.00  -1.60286921   0.71042212
1352.00  -1.61088480   0.71198355
1353.00  -1.61890593   0.71354723
1354.00  -1.62693260   0.71511315
1355.00  -1.63496480   0.71668133
1356.00  -1.64300255   0.71825176
1357.00  -1.65104584   0.71982445
1358.00  -1.65909466   0.72139939
1359.00  -1.66714902   0.72297659
1360.00  -1.67520891   0.72455605
1361.00  -1.68327434   0.72613777
1362.00  -1.69134530   0.72772175
1363.00  -1.69942179   0.72930799
1364.00  -1.70750382   0.73089650
1365.00  -1.71559138   0.73248727
1366.00  -1.72368447   0.73408032
1367.00  -1.73178308   0.73567563
1368.00  -1.73988723   0.73727321
1369.00  -1.74799690   0.73887306
1370.00  -1.75611210   0.74047519
1371.00  -1.76423283   0.74207959
1372.00  -1.77235908   0.74368627
1373.00  -1.78049086   0.74529522
1374.00  -1.78862816   0.74690646
1375.00  -1.79677099   0.74851997
1376.00  -1.80491933   0.75013577
1377.00  -1.81307320   0.75175385
1378.00  -1.82123258   0.75337422
1379.00  -1.82939749   0.75499687
1380.00  -1.83756791   0.75662182
1381.00  -1.84574386   0.75824905
1382.00  -1.85392531   0.75987857
1383.00  -1.86211229   0.76151039
1384.00  -1.87030478   0.76314450
1385.00  -1.87850278   0.76478090
1386.00  -1.88670630   0.76641960
1387.00  -1.89491533   0.76806060
1388.00  -1.90312987   0.76970391
1389.00  -1.91134993   0.77134951
1390.00  -1.91957549   0.77299741
1391.00  -1.92780656   0.77464762
1392.00  -1.93604314   0.77630014
1393.00  -1.94428523   0.77795496
1394.00  -1.95253282   0.77961209
1395.00  -1.96078592   0.78127153
1396.00  -1.96904453   0.78293328
1397.00  -1.97730863   0.78459735
1398.00  -1.98557825   0.78626373
1399.00  -1.99385336   0.78793243
1400.00  -2.00213398   0.78960344
1401.00  -2.01042009   0.79127678
1402.00  -2.01871171   0.79295243
1403.00  -2.02700882   0.79463041
1404.00  -2.03531143   0.79631070
1405.00  -2.04361954   0.79799333
1406.00  -2.05193315   0.79967828
1407.00  -2.06025225   0.80136556
1408.00  -2.06857685   0.80305516
1409.00  -2.07690694   0.80474710
1410.00  -2.08524252   0.80644137
1411.00  -2.09358359   0.80813797
1412.00  -2.10193016   0.80983691
1413.00  -2.11028221   0.81153819
1414.00  -2.11863976   0.81324180
1415.00  -2.12700279   0.81494775
1416.00  -2.13537131   0.81665605
1417.00  -2.14374532   0.81836668
1418.00  -2.15212481   0.82007966
1419.00  -2.16050979   0.82179498
1420.00  -2.16890025   0.82351266
1421.00  -2.17729620   0.82523268
1422.00  -2.18569763   0.82695504
1423.00  -2.19410454   0.82867976
1424.00  -2.20251693   0.83040684
1425.00  -2.21093480   0.83213626
1426.00  -2.21935815   0.83386804
1427.00  -2.22778697   0.83560218
1428.00  -2.23622128   0.83733868
1429.00  -2.24466106   0.83907754
1430.00  -2.25310631   0.84081875
1431.00  -2.26155704   0.84256234
1432.00  -2.27001325   0.84430828
1433.00  -2.27847492   0.84605659
1434.00  -2.28694207   0.84780727
1435.00  -2.29541469   0.84956031
1436.00  -2.30389278   0.85131573
1437.00  -2.31237634   0.85307352
1438.00  -2.32086537   0.85483367
1439.00  -2.32935986   0.85659621
1440.00  -2.33785982   0.85836112
1441.00  -2.34636525   0.86012841
1442.00  -2.35487614   0.86189807
1443.00  -2.36339250   0.86367012
1444.00  -2.37191432   0.86544454
1445.00  -2.38044160   0.86722135
1446.00  -2.38897434   0.86900055
1447.00  -2.39751254   0.87078213
1448.00  -2.40605621   0.87256609
1449.00  -2.41460533   0.87435245
1450.00  -2.42315991   0.87614120
1451.00  -2.43171994   0.87793233
1452.00  -2.44028543   0.87972586
1453.00  -2.44885638   0.88152179
1454.00  -2.45743278   0.88332011
1455.00  -2.46601464   0.88512083
1456.00  -2.47460194   0.88692394
1457.00  -2.48319470   0.88872946
1458.00  -2.49179291   0.89053738
1459.00  -2.50039657   0.89234770
1460.00  -2.50900568   0.89416043
1461.00  -2.51762024   0.89597556
1462.00  -2.52624024   0.89779310
1463.00  -2.53486569   0.89961305
1464.00  -2.54349658   0.90143541
1465.00  -2.55213292   0.90326018
1466.00  -2.56077471   0.90508736
1467.00  -2.56942193   0.90691696
1468.00  -2.57807460   0.90874898
1469.00  -2.58673271   0.91058341
1470.00  -2.59539626   0.91242026
1471.00  -2.60406524   0.91425953
1472.00  -2.61273967   0.91610122
1473.00  -2.62141953   0.91794534
1474.00  -2.63010483   0.91979188
1475.00  -2.63879557   0.92164085
1476.00  -2.64749174   0.92349224
1477.00  -2.65619334   0.92534606
1478.00  -2.66490038   0.92720232
1479.00  -2.67361284   0.92906100
1480.00  -2.68233074   0.93092212
1481.00  -2.69105407   0.93278567
1482.00  -2.69978283   0.93465166
1483.00  -2.70851702   0.93652009
1484.00  -2.71725663   0.93839095
1485.00  -2.72600167   0.94026426
1486.00  -2.73475214   0.94214001
1487.00  -2.74350803   0.94401820
1488.00  -2.75226934   0.94589883
1489.00  -2.76103608   0.94778192
1490.00  -2.76980824   0.94966744
1491.00  -2.77858582   0.95155542
1492.00  -2.78736882   0.95344585
1493.00  -2.79615724   0.95533873
1494.00  -2.80495108   0.95723406
1495.00  -2.81375034   0.95913185
1496.00  -2.82255501   0.96103210
1497.00  -2.83136510   0.96293480
1498.00  -2.84018060   0.96483996
1499.00  -2.84900152   0.96674758
1500.00  -2.85782785   0.96865766
1501.00  -2.86665959   0.97057021
1502.00  -2.87549675   0.97248522
1503.00  -2.88433931   0.97440269
1504.00  -2.89318728   0.97632263
1505.00  -2.90204066   0.97824505
1506.00  -2.91089945   0.98016993
1507.00  -2.91976365   0.98209728
1508.00  -2.92863325   0.98402711
1509.00  -2.93750825   0.98595941
1510.00  -2.94638866   0.98789419
1511.00  -2.95527447   0.98983144
1512.00  -2.96416569   0.99177118
1513.00  -2.97306230   0.99371339
1514.00  -2.98196432   0.99565809
1515.00  -2.99087173   0.99760527
1516.00  -2.99978455   0.99955493
1517.00  -3.00870276   1.00150708
1518.00  -3.01762636   1.00346171
1519.00  -3.02655537   1.00541884
1520.00  -3.03548976   1.00737845
1521.00  -3.04442955   1.00934056
1522.00  -3.05337474   1.01130516
1523.00  -3.06232531   1.01327225
1524.00  -3.07128128   1.01524184
1525.00  -3.08024264   1.01721392
1526.00  -3.08920938   1.01918851
1527.00  -3.09818151   1.02116559
1528.00  -3.10715904   1.02314518
1529.00  -3.11614194   1.02512727
1530.00  -3.12513024   1.02711186
1531.00  -3.13412391   1.02909896
1532.00  -3.14312298   1.03108857
1533.00  -3.15212742   1.03308068
1534.00  -3.16113724   1.03507530
1535.00  -3.17015245   1.03707244
1536.00  -3.17917304   1.03907208
1537.00  -3.18819900   1.04107425
1538.00  -3.19723034   1.04307892
1539.00  -3.20626707   1.04508612
1540.00  -3.21530916   1.04709583
1541.00  -3.22435663   1.04910806
1542.00  -3.23340948   1.05112281
1543.00  -3.24246770   1.05314009
1544.00  -3.25153129   1.05515989
1545.00  -3.26060025   1.05718221
1546.00  -3.26967459   1.05920706
1547.00  -3.27875429   1.06123444
1548.00  -3.28783936   1.06326435
1549.00  -3.29692980   1.06529679
1550.00  -3.30602561   1.06733176
1551.00  -3.31512678   1.06936927
1552.00  -3.32423332   1.07140931
1553.00  -3.33334522   1.07345188
1554.00  -3.34246249   1.07549700
1555.00  -3.35158512   1.07754465
1556.00  -3.36071311   1.07959485
1557.00  -3.36984645   1.08164758
1558.00  -3.37898516   1.08370286
1559.00  -3.38812923   1.08576069
1560.00  -3.39727865   1.08782106
1561.00  -3.40643343   1.08988398
1562.00  -3.41559357   1.09194945
1563.00  -3.42475906   1.09401747
1564.00  -3.43392991   1.09608804
1565.00  -3.44310611   1.09816116
1566.00  -3.45228766   1.10023684
1567.00  -3.46147456   1.10231507
1568.00  -3.47066681   1.10439586
1569.00  -3.47986441   1.10647921
1570.00  -3.48906735   1.10856512
1571.00  -3.49827565   1.11065360
1572.00  -3.50748929   1.11274463
1573.00  -3.51670828   1.11483823
1574.00  -3.52593261   1.11693440
1575.00  -3.53516228   1.11903313
1576.00  -3.54439730   1.12113443
1577.00  -3.55363766   1.12323830
1578.00  -3.56288336   1.12534474
1579.00  -3.57213439   1.12745376
1580.00  -3.58139077   1.12956535
1581.00  -3.59065248   1.13167951
1582.00  -3.59991954   1.13379625
1583.00  -3.60919192   1.13591557
1584.00  -3.61846965   1.13803747
1585.00  -3.62775270   1.14016195
1586.00  -3.63704109   1.14228901
1587.00  -3.64633481   1.14441866
1588.00  -3.65563386   1.14655089
1589.00  -3.66493825   1.14868571
1590.00  -3.67424796   1.15082312
1591.00  -3.68356300   1.15296311
1592.00  -3.69288336   1.15510570
1593.00  -3.70220906   1.15725088
1594.00  -3.71154008   1.15939865
1595.00  -3.72087642   1.16154901
1596.00  -3.73021809   1.16370198
1597.00  -3.73956507   1.16585754
1598.00  -3.74891738   1.16801570
1599.00  -3.75827502   1.17017646
1600.00  -3.76763797   1.17233982
1601.00  -3.77700624   1.17450578
1602.00  -3.78637982   1.17667435
1603.00  -3.79575873   1.17884553
1604.00  -3.80514295   1.18101931
1605.00  -3.81453248   1.18319570
1606.00  -3.82392733   1.18537470
1607.00  -3.83332749   1.18755631
1608.00  -3.84273296   1.18974054
1609.00  -3.85214375   1.19192738
1610.00  -3.86155984   1.19411683
1611.00  -3.87098124   1.19630890
1612.00  -3.88040795   1.19850359
1613.00  -3.88983997   1.20070090
1614.00  -3.89927730   1.20290083
1615.00  -3.90871993   1.20510339
1616.00  -3.91816786   1.20730856
1617.00  -3.92762110   1.20951637
1618.00  -3.93707964   1.21172679
1619.00  -3.94654348   1.21393985
1620.00  -3.95601262   1.21615554
1621.00  -3.96548706   1.21837385
1622.00  -3.97496680   1.22059480
1623.00  -3.98445184   1.22281838
1624.00  -3.99394217   1.22504460
1625.00  -4.00343780   1.22727345
1626.00  -4.01293872   1.22950494
1627.00  -4.02244494   1.23173907
1628.00  -4.03195645   1.23397584
1629.00  -4.04147325   1.23621525
1630.00  -4.05099535   1.23845730
1631.00  -4.06052273   1.24070200
1632.00  -4.07005540   1.24294934
1633.00  -4.07959336   1.24519933
1634.00  -4.08913660   1.24745197
1635.00  -4.09868513   1.24970726
1636.00  -4.10823895   1.25196520
1637.00  -4.11779805   1.25422579
1638.00  -4.12736243   1.25648903
1639.00  -4.13693210   1.25875494
1640.00  -4.14650704   1.26102349
1641.00  -4.15608727   1.26329471
1642.00  -4.16567278   1.26556858
1643.00  -4.17526356   1.26784512
1644.00  -4.18485962   1.27012432
1645.00  -4.19446096   1.27240618
1646.00  -4.20406757   1.27469070
1647.00  -4.21367945   1.27697789
1648.00  -4.22329661   1.27926775
1649.00  -4.23291904   1.28156028
1650.00  -4.24254675   1.28385548
1651.00  -4.25217972   1.28615335
1652.00  -4.26181796   1.28845389
1653.00  -4.27146147   1.29075711
1654.00  -4.28111025   1.29306300
1655.00  -4.29076429   1.29537157
1656.00  -4.30042360   1.29768281
1657.00  -4.31008817   1.29999674
1658.00  -4.31975801   1.30231335
1659.00  -4.32943311   1.30463264
1660.00  -4.33911347   1.30695461
1661.00  -4.34879909   1.30927927
1662.00  -4.35848997   1.31160662
1663.00  -4.36818611   1.31393665
1664.00  -4.37788751   1.31626937
1665.00  -4.38759416   1.31860478
1666.00  -4.39730607   1.32094289
1667.00  -4.40702323   1.32328369
1668.00  -4.41674565   1.32562718
1669.00  -4.42647332   1.32797337
1670.00  -4.43620624   1.33032225
1671.00  -4.44594441   1.33267384
1672.00  -4.45568783   1.33502812
1673.00  -4.46543650   1.33738510
1674.00  -4.47519041   1.33974479
1675.00  -4.48494958   1.34210718
1676.00  -4.49471399   1.34447228
1677.00  -4.50448364   1.34684008
1678.00  -4.51425854   1.34921059
1679.00  -4.52403868   1.35158381
1680.00  -4.53382406   1.35395974
1681.00  -4.54361468   1.35633839
1682.00  -4.55341054   1.35871974
1683.00  -4.56321164   1.36110382
1684.00  -4.57301798   1.36349060
1685.00  -4.58282956   1.36588011
1686.00  -4.59264637   1.36827233
1687.00  -4.60246841   1.37066727
1688.00  -4.61229569   1.37306494
1689.00  -4.62212820   1.37546533
1690.00  -4.63196595   1.37786844
1691.00  -4.64180892   1.38027427
1692.00  -4.65165712   1.38268284
1693.00  -4.66151056   1.38509413
1694.00  -4.67136922   1.38750815
1695.00  -4.68123310   1.38992490
1696.00  -4.69110222   1.39234439
1697.00  -4.70097655   1.39476660
1698.00  -4.71085611   1.39719156
1699.00  -4.72074090   1.39961924
1700.00  -4.73063090   1.40204967
1701.00  -4.74052613   1.40448283
1702.00  -4.75042657   1.40691874
1703.00  -4.76033224   1.40935738
1704.00  -4.77024312   1.41179877
1705.00  -4.78015922   1.41424291
1706.00  -4.79008053   1.41668978
1707.00  -4.80000706   1.41913941
1708.00  -4.80993881   1.42159178
1709.00  -4.81987576   1.42404690
1710.00  -4.82981793   1.42650478
1711.00  -4.83976531   1.42896540
1712.00  -4.84971790   1.43142878
1713.00  -4.85967569   1.43389491
1714.00  -4.86963870   1.43636380
1715.00  -4.87960691   1.43883545
1716.00  -4.88958032   1.44130986
1717.00  -4.89955894   1.44378702
1718.00  -4.90954277   1.44626695
1719.00  -4.91953179   1.44874964
1720.00  -4.92952602   1.45123509
1721.00  -4.93952545   1.45372331
1722.00  -4.94953008   1.45621430
1723.00  -4.95953991   1.45870805
1724.00  -4.96955493   1.46120457
1725.00  -4.97957515   1.46370387
1726.00  -4.98960057   1.46620593
1727.00  -4.99963118   1.46871077
1728.00  -5.00966699   1.47121839
1729.00  -5.01970798   1.47372878
1730.00  -5.02975417   1.47624194
1731.00  -5.03980555   1.47875789
1732.00  -5.04986212   1.48127661
1733.00  -5.05992388   1.48379812
1734.00  -5.06999082   1.48632241
1735.00  -5.08006295   1.48884948
1736.00  -5.09014027   1.49137934
1737.00  -5.10022277   1.49391198
1738.00  -5.11031045   1.49644742
1739.00  -5.12040332   1.49898564
1740.00  -5.13050137   1.50152665
1741.00  -5.14060460   1.50407045
1742.00  -5.15071300   1.50661705
1743.00  -5.16082659   1.50916644
1744.00  -5.17094535   1.51171863
1745.00  -5.18106929   1.51427361
1746.00  -5.19119840   1.51683140
1747.00  -5.20133269   1.51939198
1748.00  -5.21147215   1.52195536
1749.00  -5.22161679   1.52452154
1750.00  -5.23176659   1.52709053
1751.00  -5.24192157   1.52966233
1752.00  -5.25208171   1.53223693
1753.00  -5.26224702   1.53481433
1754.00  -5.27241750   1.53739455
1755.00  -5.28259315   1.53997758
1756.00  -5.29277395   1.54256341
1757.00  -5.30295993   1.54515206
1758.00  -5.31315106   1.54774353
1759.00  -5.32334736   1.55033781
1760.00  -5.33354882   1.55293490
1761.00  -5.34375544   1.55553482
1762.00  -5.35396722   1.55813755
1763.00  -5.36418415   1.56074311
1764.00  -5.37440625   1.56335148
1765.00  -5.38463349   1.56596268
1766.00  -5.39486590   1.56857671
1767.00  -5.40510345   1.57119356
1768.00  -5.41534616   1.57381323
1769.00  -5.42559402   1.57643574
1770.00  -5.43584703   1.57906107
1771.00  -5.44610519   1.58168924
1772.00  -5.45636850   1.58432024
1773.00  -5.46663696   1.58695407
1774.00  -5.47691056   1.58959074
1775.00  -5.48718931   1.59223024
1776.00  -5.49747320   1.59487258
1777.00  -5.50776224   1.59751776
1778.00  -5.51805642   1.60016578
1779.00  -5.52835574   1.60281664
1780.00  -5.53866020   1.60547034
1781.00  -5.54896980   1.60812689
1782.00  -5.55928453   1.61078628
1783.00  -5.56960441   1.61344852
1784.00  -5.57992942   1.61611361
1785.00  -5.59025956   1.61878155
1786.00  -5.60059484   1.62145233
1787.00  -5.61093525   1.62412597
1788.00  -5.62128080   1.62680246
1789.00  -5.63163147   1.62948181
1790.00  -5.64198728   1.63216401
1791.00  -5.65234821   1.63484907
1792.00  -5.66271427   1.63753699
1793.00  -5.67308546   1.64022777
1794.00  -5.68346178   1.64292140
1795.00  -5.69384321   1.64561790
1796.00  -5.70422978   1.64831727
1797.00  -5.71462146   1.65101949
1798.00  -5.72501827   1.65372459
1799.00  -5.73542019   1.65643255
1800.00  -5.74582724   1.65914338
1801.00  -5.75623940   1.66185708
1802.00  -5.76665669   1.66457365
1803.00  -5.77707908   1.66729309
1804.00  -5.78750660   1.67001541
1805.00  -5.79793922   1.67274060
1806.00  -5.80837696   1.67546867
1807.00  -5.81881982   1.67819961
1808.00  -5.82926778   1.68093344
1809.00  -5.83972085   1.68367014
1810.00  -5.85017904   1.68640973
1811.00  -5.86064233   1.68915220
1812.00  -5.87111073   1.69189755
1813.00  -5.88158423   1.69464579
1814.00  -5.89206284   1.69739691
1815.00  -5.90254655   1.70015093
1816.00  -5.91303536   1.70290783
1817.00  -5.92352928   1.70566762
1818.00  -5.93402830   1.70843030
1819.00  -5.94453241   1.71119588
1820.00  -5.95504163   1.71396435
1821.00  -5.96555594   1.71673572
1822.00  -5.97607535   1.71950998
1823.00  -5.98659985   1.72228714
1824.00  -5.99712945   1.72506720
1825.00  -6.00766414   1.72785016
1826.00  -6.01820392   1.73063603
1827.00  -6.02874880   1.73342479
1828.00  -6.03929876   1.73621646
1829.00  -6.04985382   1.73901104
1830.00  -6.06041396   1.74180852
1831.00  -6.07097919   1.74460892
1832.00  -6.08154950   1.74741222
1833.00  -6.09212490   1.75021843
1834.00  -6.10270538   1.75302755
1835.00  -6.11329095   1.75583959
1836.00  -6.12388159   1.75865454
1837.00  -6.13447732   1.76147241
1838.00  -6.14507813   1.76429320
1839.00  -6.15568401   1.76711690
1840.00  -6.16629498   1.76994353
1841.00  -6.17691101   1.77277307
1842.00  -6.18753213   1.77560554
1843.00  -6.19815832   1.77844093
1844.00  -6.20878958   1.78127924
1845.00  -6.21942591   1.78412048
1846.00  -6.23006732   1.78696465
1847.00  -6.24071379   1.78981175
1848.00  -6.25136533   1.79266178
1849.00  -6.26202194   1.79551473
1850.00  -6.27268362   1.79837062
1851.00  -6.28335037   1.80122945
1852.00  -6.29402217   1.80409121
1853.00  -6.30469904   1.80695590
1854.00  -6.31538098   1.80982354
1855.00  -6.32606797   1.81269411
1856.00  -6.33676003   1.81556762
1857.00  -6.34745714   1.81844407
1858.00  -6.35815932   1.82132347
1859.00  -6.36886655   1.82420581
1860.00  -6.37957883   1.82709109
1861.00  -6.39029617   1.82997932
1862.00  -6.40101857   1.83287050
1863.00  -6.41174602   1.83576462
1864.00  -6.42247852   1.83866170
1865.00  -6.43321607   1.84156173
1866.00  -6.44395867   1.84446471
1867.00  -6.45470632   1.84737064
1868.00  -6.46545901   1.85027953
1869.00  -6.47621676   1.85319138
1870.00  -6.48697954   1.85610618
1871.00  -6.49774738   1.85902394
1872.00  -6.50852025   1.86194466
1873.00  -6.51929817   1.86486835
1874.00  -6.53008113   1.86779499
1875.00  -6.54086913   1.87072460
1876.00  -6.55166216   1.87365718
1877.00  -6.56246024   1.87659272
1878.00  -6.57326335   1.87953123
1879.00  -6.58407150   1.88247271
1880.00  -6.59488468   1.88541715
1881.00  -6.60570290   1.88836457
1882.00  -6.61652615   1.89131496
1883.00  -6.62735443   1.89426833
1884.00  -6.63818774   1.89722467
1885.00  -6.64902608   1.90018399
1886.00  -6.65986945   1.90314628
1887.00  -6.67071784   1.90611156
1888.00  -6.68157126   1.90907981
1889.00  -6.69242971   1.91205105
1890.00  -6.70329318   1.91502526
1891.00  -6.71416167   1.91800246
1892.00  -6.72503518   1.92098265
1893.00  -6.73591372   1.92396582
1894.00  -6.74679727   1.92695198
1895.00  -6.75768585   1.92994113
1896.00  -6.76857944   1.93293327
1897.00  -6.77947804   1.93592840
1898.00  -6.79038166   1.93892653
1899.00  -6.80129030   1.94192764
1900.00  -6.81220395   1.94493176
1901.00  -6.82312261   1.94793886
1902.00  -6.83404628   1.95094897
1903.00  -6.84497496   1.95396207
1904.00  -6.85590865   1.95697818
1905.00  -6.86684735   1.95999728
1906.00  -6.87779105   1.96301939
1907.00  -6.88873976   1.96604450
1908.00  -6.89969348   1.96907262
1909.00  -6.91065219   1.97210374
1910.00  -6.92161591   1.97513787
1911.00  -6.93258463   1.97817501
1912.00  -6.94355835   1.98121516
1913.00  -6.95453707   1.98425832
1914.00  -6.96552079   1.98730449
1915.00  -6.97650950   1.99035368
1916.00  -6.98750321   1.99340588
1917.00  -6.99850192   1.99646110
1918.00  -7.00950561   1.99951933
1919.00  -7.02051430   2.00258058
1920.00  -7.03152798   2.00564485
1921.00  -7.04254665   2.00871215
1922.00  -7.05357032   2.01178246
1923.00  -7.06459896   2.01485580
1924.00  -7.07563260   2.01793216
1925.00  -7.08667122   2.02101155
1926.00  -7.09771483   2.02409397
1927.00  -7.10876341   2.02717941
1928.00  -7.11981699   2.03026789
1929.00  -7.13087554   2.03335939
1930.00  -7.14193907   2.03645393
1931.00  -7.15300759   2.03955150
1932.00  -7.16408108   2.04265210
1933.00  -7.17515955   2.04575574
1934.00  -7.18624299   2.04886242
1935.00  -7.19733141   2.05197214
1936.00  -7.20842480   2.05508489
1937.00  -7.21952317   2.05820069
1938.00  -7.23062650   2.06131952
1939.00  -7.24173481   2.06444140
1940.00  -7.25284809   2.06756633
1941.00  -7.26396633   2.07069430
1942.00  -7.27508955   2.07382531
1943.00  -7.28621772   2.07695938
1944.00  -7.29735087   2.08009649
1945.00  -7.30848897   2.08323665
1946.00  -7.31963204   2.08637987
1947.00  -7.33078008   2.08952614
1948.00  -7.34193307   2.09267546
1949.00  -7.35309102   2.09582784
1950.00  -7.36425393   2.09898327
1951.00  -7.37542180   2.10214176
1952.00  -7.38659462   2.10530331
1953.00  -7.39777240   2.10846792
1954.00  -7.40895513   2.11163560
1955.00  -7.42014282   2.11480633
1956.00  -7.43133545   2.11798013
1957.00  -7.44253304   2.12115699
1958.00  -7.45373558   2.12433692
1959.00  -7.46494307   2.12751992
1960.00  -7.47615550   2.13070598
1961.00  -7.48737288   2.13389512
1962.00  -7.49859520   2.13708732
1963.00  -7.50982247   2.14028260
1964.00  -7.52105468   2.14348095
1965.00  -7.53229183   2.14668238
1966.00  -7.54353393   2.14988688
1967.00  -7.55478096   2.15309446
1968.00  -7.56603293   2.15630511
1969.00  -7.57728984   2.15951885
1970.00  -7.58855169   2.16273567
1971.00  -7.59981847   2.16595557
1972.00  -7.61109018   2.16917855
1973.00  -7.62236683   2.17240461
1974.00  -7.63364841   2.17563377
1975.00  -7.64493492   2.17886600
1976.00  -7.65622636   2.18210133
1977.00  -7.66752272   2.18533975
1978.00  -7.67882402   2.18858125
1979.00  -7.69013024   2.19182585
1980.00  -7.70144139   2.19507354
1981.00  -7.71275746   2.19832432
1982.00  -7.72407845   2.20157820
1983.00  -7.73540437   2.20483518
1984.00  -7.74673520   2.20809525
1985.00  -7.75807096   2.21135842
1986.00  -7.76941163   2.21462469
1987.00  -7.78075722   2.21789406
1988.00  -7.79210773   2.22116654
1989.00  -7.80346315   2.22444212
1990.00  -7.81482349   2.22772080
1991.00  -7.82618874   2.23100259
1992.00  -7.83755890   2.23428748
1993.00  -7.84893397   2.23757549
1994.00  -7.86031395   2.24086660
1995.00  -7.87169884   2.24416082
1996.00  -7.88308864   2.24745816
1997.00  -7.89448334   2.25075861
1998.00  -7.90588295   2.25406217
1999.00  -7.91728746   2.25736885
2000.00  -7.92869687   2.26067865
