wavelength(nm)         real         imag
200.00   3.70381704   0.00374941
201.00   3.70185103   0.00380592
202.00   3.69987523   0.00386300
203.00   3.69788964   0.00392064
204.00   3.69589426   0.00397885
205.00   3.69388909   0.00403763
206.00   3.69187412   0.00409699
207.00   3.68984937   0.00415693
208.00   3.68781483   0.00421745
209.00   3.68577050   0.00427856
210.00   3.68371638   0.00434025
211.00   3.68165247   0.00440253
212.00   3.67957877   0.00446541
213.00   3.67749528   0.00452888
214.00   3.67540201   0.00459295
215.00   3.67329895   0.00465762
216.00   3.67118610   0.00472289
217.00   3.66906346   0.00478877
218.00   3.66693103   0.00485526
219.00   3.66478882   0.00492237
220.00   3.66263682   0.00499009
221.00   3.66047503   0.00505842
222.00   3.65830346   0.00512738
223.00   3.65612210   0.00519696
224.00   3.65393095   0.00526717
225.00   3.65173002   0.00533800
226.00   3.64951930   0.00540947
227.00   3.64729880   0.00548157
228.00   3.64506851   0.00555431
229.00   3.64282844   0.00562769
230.00   3.64057858   0.00570172
231.00   3.63831894   0.00577639
232.00   3.63604951   0.00585170
233.00   3.63377030   0.00592767
234.00   3.63148131   0.00600430
235.00   3.62918254   0.00608158
236.00   3.62687398   0.00615952
237.00   3.62455563   0.00623813
238.00   3.62222751   0.00631740
239.00   3.61988960   0.00639733
240.00   3.61754191   0.00647794
241.00   3.61518444   0.00655923
242.00   3.61281719   0.00664119
243.00   3.61044016   0.00672383
244.00   3.60805334   0.00680715
245.00   3.60565675   0.00689116
246.00   3.60325037   0.00697585
247.00   3.60083421   0.00706124
248.00   3.59840828   0.00714732
249.00   3.59597256   0.00723409
250.00   3.59352707   0.00732157
251.00   3.59107179   0.00740974
252.00   3.58860674   0.00749863
253.00   3.58613191   0.00758821
254.00   3.58364730   0.00767851
255.00   3.58115291   0.00776953
256.00   3.57864874   0.00786126
257.00   3.57613480   0.00795370
258.00   3.57361108   0.00804687
259.00   3.57107758   0.00814076
260.00   3.56853430   0.00823538
261.00   3.56598125   0.00833073
262.00   3.56341842   0.00842682
263.00   3.56084582   0.00852364
264.00   3.55826344   0.00862119
265.00   3.55567129   0.00871949
266.00   3.55306936   0.00881853
267.00   3.55045765   0.00891832
268.00   3.54783618   0.00901886
269.00   3.54520492   0.00912015
270.00   3.54256390   0.00922219
271.00   3.53991310   0.00932499
272.00   3.53725252   0.00942856
273.00   3.53458218   0.00953288
274.00   3.53190206   0.00963798
275.00   3.52921216   0.00974384
276.00   3.52651250   0.00985047
277.00   3.52380306   0.00995788
278.00   3.52108386   0.01006607
279.00   3.51835488   0.01017503
280.00   3.51561613   0.01028478
281.00   3.51286761   0.01039532
282.00   3.51010932   0.01050664
283.00   3.50734126   0.01061876
284.00   3.50456343   0.01073166
285.00   3.50177583   0.01084537
286.00   3.49897846   0.01095988
287.00   3.49617132   0.01107518
288.00   3.49335442   0.01119130
289.00   3.49052774   0.01130822
290.00   3.48769130   0.01142595
291.00   3.48484509   0.01154450
292.00   3.48198911   0.01166386
293.00   3.47912337   0.01178404
294.00   3.47624786   0.01190505
295.00   3.47336258   0.01202688
296.00   3.47046754   0.01214953
297.00   3.46756273   0.01227302
298.00   3.46464815   0.01239734
299.00   3.46172381   0.01252250
300.00   3.45878971   0.01264849
301.00   3.45584584   0.01277533
302.00   3.45289221   0.01290301
303.00   3.44992881   0.01303154
304.00   3.44695565   0.01316092
305.00   3.44397273   0.01329115
306.00   3.44098004   0.01342224
307.00   3.43797759   0.01355418
308.00   3.43496538   0.01368699
309.00   3.43194341   0.01382066
310.00   3.42891167   0.01395520
311.00   3.42587018   0.01409060
312.00   3.42281892   0.01422688
313.00   3.41975791   0.01436404
314.00   3.41668713   0.01450207
315.00   3.41360659   0.01464098
316.00   3.41051630   0.01478078
317.00   3.40741624   0.01492146
318.00   3.40430643   0.01506303
319.00   3.40118685   0.01520549
320.00   3.39805752   0.01534885
321.00   3.39491843   0.01549311
322.00   3.39176959   0.01563826
323.00   3.38861099   0.01578432
324.00   3.38544263   0.01593128
325.00   3.38226451   0.01607916
326.00   3.37907664   0.01622794
327.00   3.37587901   0.01637764
328.00   3.37267162   0.01652825
329.00   3.36945449   0.01667979
330.00   3.36622759   0.01683224
331.00   3.36299095   0.01698563
332.00   3.35974454   0.01713994
333.00   3.35648839   0.01729518
334.00   3.35322248   0.01745135
335.00   3.34994682   0.01760846
336.00   3.34666140   0.01776651
337.00   3.34336624   0.01792550
338.00   3.34006132   0.01808544
339.00   3.33674665   0.01824633
340.00   3.33342223   0.01840816
341.00   3.33008806   0.01857095
342.00   3.32674414   0.01873469
343.00   3.32339047   0.01889939
344.00   3.32002704   0.01906506
345.00   3.31665387   0.01923169
346.00   3.31327095   0.01939928
347.00   3.30987829   0.01956785
348.00   3.30647587   0.01973738
349.00   3.30306371   0.01990790
350.00   3.29964179   0.02007939
351.00   3.29621014   0.02025186
352.00   3.29276873   0.02042531
353.00   3.28931758   0.02059976
354.00   3.28585668   0.02077519
355.00   3.28238604   0.02095161
356.00   3.27890565   0.02112903
357.00   3.27541552   0.02130744
358.00   3.27191564   0.02148686
359.00   3.26840602   0.02166728
360.00   3.26488665   0.02184870
361.00   3.26135755   0.02203114
362.00   3.25781869   0.02221458
363.00   3.25427010   0.02239904
364.00   3.25071176   0.02258452
365.00   3.24714369   0.02277102
366.00   3.24356587   0.02295854
367.00   3.23997831   0.02314708
368.00   3.23638101   0.02333665
369.00   3.23277397   0.02352726
370.00   3.22915719   0.02371889
371.00   3.22553067   0.02391157
372.00   3.22189441   0.02410528
373.00   3.21824841   0.02430004
374.00   3.21459268   0.02449584
375.00   3.21092720   0.02469268
376.00   3.20725199   0.02489058
377.00   3.20356705   0.02508953
378.00   3.19987236   0.02528954
379.00   3.19616794   0.02549061
380.00   3.19245379   0.02569274
381.00   3.18872990   0.02589593
382.00   3.18499627   0.02610019
383.00   3.18125291   0.02630551
384.00   3.17749981   0.02651192
385.00   3.17373699   0.02671939
386.00   3.16996442   0.02692795
387.00   3.16618213   0.02713758
388.00   3.16239010   0.02734830
389.00   3.15858834   0.02756011
390.00   3.15477685   0.02777301
391.00   3.15095563   0.02798699
392.00   3.14712468   0.02820208
393.00   3.14328399   0.02841825
394.00   3.13943358   0.02863554
395.00   3.13557344   0.02885392
396.00   3.13170357   0.02907341
397.00   3.12782396   0.02929401
398.00   3.12393464   0.02951571
399.00   3.12003558   0.02973854
400.00   3.11612679   0.02996248
401.00   3.11220828   0.03018754
402.00   3.10828004   0.03041372
403.00   3.10434208   0.03064103
404.00   3.10039439   0.03086947
405.00   3.09643697   0.03109903
406.00   3.09246983   0.03132974
407.00   3.08849297   0.03156157
408.00   3.08450638   0.03179455
409.00   3.08051007   0.03202867
410.00   3.07650403   0.03226393
411.00   3.07248828   0.03250034
412.00   3.06846280   0.03273790
413.00   3.06442759   0.03297662
414.00   3.06038267   0.03321648
415.00   3.05632803   0.03345751
416.00   3.05226366   0.03369970
417.00   3.04818958   0.03394306
418.00   3.04410577   0.03418758
419.00   3.04001225   0.03443327
420.00   3.03590901   0.03468013
421.00   3.03179604   0.03492817
422.00   3.02767337   0.03517738
423.00   3.02354097   0.03542778
424.00   3.01939886   0.03567936
425.00   3.01524703   0.03593212
426.00   3.01108548   0.03618608
427.00   3.00691422   0.03644123
428.00   3.00273325   0.03669757
429.00   2.99854255   0.03695511
430.00   2.99434215   0.03721385
431.00   2.99013203   0.03747379
432.00   2.98591220   0.03773493
433.00   2.98168265   0.03799729
434.00   2.97744340   0.03826086
435.00   2.97319443   0.03852564
436.00   2.96893575   0.03879163
437.00   2.96466736   0.03905885
438.00   2.96038925   0.03932729
439.00   2.95610144   0.03959695
440.00   2.95180392   0.03986785
441.00   2.94749669   0.04013997
442.00   2.94317975   0.04041332
443.00   2.93885310   0.04068791
444.00   2.93451675   0.04096374
445.00   2.93017069   0.04124082
446.00   2.92581492   0.04151913
447.00   2.92144944   0.04179870
448.00   2.91707426   0.04207951
449.00   2.91268937   0.04236157
450.00   2.90829478   0.04264489
451.00   2.90389049   0.04292947
452.00   2.89947649   0.04321531
453.00   2.89505278   0.04350242
454.00   2.89061938   0.04379079
455.00   2.88617627   0.04408043
456.00   2.88172346   0.04437134
457.00   2.87726095   0.04466352
458.00   2.87278874   0.04495699
459.00   2.86830682   0.04525173
460.00   2.86381521   0.04554776
461.00   2.85931390   0.04584507
462.00   2.85480289   0.04614367
463.00   2.85028217   0.04644356
464.00   2.84575177   0.04674475
465.00   2.84121166   0.04704723
466.00   2.83666186   0.04735101
467.00   2.83210236   0.04765609
468.00   2.82753316   0.04796248
469.00   2.82295427   0.04827018
470.00   2.81836569   0.04857919
471.00   2.81376740   0.04888951
472.00   2.80915943   0.04920115
473.00   2.80454176   0.04951410
474.00   2.79991440   0.04982838
475.00   2.79527735   0.05014398
476.00   2.79063060   0.05046091
477.00   2.78597416   0.05077917
478.00   2.78130803   0.05109876
479.00   2.77663221   0.05141969
480.00   2.77194671   0.05174195
481.00   2.76725151   0.05206556
482.00   2.76254662   0.05239050
483.00   2.75783204   0.05271680
484.00   2.75310778   0.05304444
485.00   2.74837383   0.05337344
486.00   2.74363019   0.05370379
487.00   2.73887686   0.05403550
488.00   2.73411385   0.05436857
489.00   2.72934116   0.05470300
490.00   2.72455878   0.05503880
491.00   2.71976671   0.05537596
492.00   2.71496496   0.05571450
493.00   2.71015353   0.05605441
494.00   2.70533241   0.05639570
495.00   2.70050162   0.05673836
496.00   2.69566114   0.05708241
497.00   2.69081098   0.05742784
498.00   2.68595113   0.05777467
499.00   2.68108161   0.05812288
500.00   2.67620241   0.05847248
501.00   2.67131353   0.05882348
502.00   2.66641497   0.05917588
503.00   2.66150674   0.05952968
504.00   2.65658882   0.05988489
505.00   2.65166123   0.06024150
506.00   2.64672396   0.06059952
507.00   2.64177702   0.06095895
508.00   2.63682040   0.06131980
509.00   2.63185411   0.06168207
510.00   2.62687814   0.06204576
511.00   2.62189250   0.06241087
512.00   2.61689718   0.06277740
513.00   2.61189220   0.06314537
514.00   2.60687754   0.06351477
515.00   2.60185321   0.06388560
516.00   2.59681920   0.06425787
517.00   2.59177553   0.06463158
518.00   2.58672219   0.06500673
519.00   2.58165918   0.06538332
520.00   2.57658650   0.06576137
521.00   2.57150415   0.06614086
522.00   2.56641213   0.06652181
523.00   2.56131045   0.06690422
524.00   2.55619910   0.06728808
525.00   2.55107808   0.06767341
526.00   2.54594740   0.06806020
527.00   2.54080705   0.06844846
528.00   2.53565704   0.06883818
529.00   2.53049737   0.06922939
530.00   2.52532803   0.06962206
531.00   2.52014903   0.07001622
532.00   2.51496037   0.07041185
533.00   2.50976204   0.07080897
534.00   2.50455406   0.07120758
535.00   2.49933641   0.07160767
536.00   2.49410911   0.07200926
537.00   2.48887214   0.07241234
538.00   2.48362552   0.07281692
539.00   2.47836924   0.07322300
540.00   2.47310330   0.07363058
541.00   2.46782770   0.07403967
542.00   2.46254245   0.07445027
543.00   2.45724754   0.07486237
544.00   2.45194298   0.07527599
545.00   2.44662876   0.07569113
546.00   2.44130488   0.07610779
547.00   2.43597136   0.07652597
548.00   2.43062818   0.07694567
549.00   2.42527535   0.07736690
550.00   2.41991286   0.07778967
551.00   2.41454073   0.07821396
552.00   2.40915894   0.07863979
553.00   2.40376751   0.07906716
554.00   2.39836642   0.07949607
555.00   2.39295569   0.07992653
556.00   2.38753531   0.08035853
557.00   2.38210528   0.08079208
558.00   2.37666560   0.08122718
559.00   2.37121628   0.08166384
560.00   2.36575731   0.08210205
561.00   2.36028870   0.08254183
562.00   2.35481044   0.08298317
563.00   2.34932253   0.08342607
564.00   2.34382499   0.08387055
565.00   2.33831780   0.08431659
566.00   2.33280097   0.08476421
567.00   2.32727449   0.08521341
568.00   2.32173838   0.08566418
569.00   2.31619262   0.08611654
570.00   2.31063723   0.08657048
571.00   2.30507219   0.08702601
572.00   2.29949752   0.08748313
573.00   2.29391321   0.08794184
574.00   2.28831926   0.08840215
575.00   2.28271567   0.08886406
576.00   2.27710245   0.08932757
577.00   2.27147959   0.08979268
578.00   2.26584710   0.09025940
579.00   2.26020497   0.09072773
580.00   2.25455321   0.09119768
581.00   2.24889181   0.09166923
582.00   2.24322079   0.09214241
583.00   2.23754013   0.09261720
584.00   2.23184984   0.09309362
585.00   2.22614991   0.09357167
586.00   2.22044036   0.09405134
587.00   2.21472118   0.09453264
588.00   2.20899237   0.09501558
589.00   2.20325393   0.09550016
590.00   2.19750587   0.09598637
591.00   2.19174817   0.09647423
592.00   2.18598085   0.09696373
593.00   2.18020391   0.09745488
594.00   2.17441734   0.09794768
595.00   2.16862114   0.09844213
596.00   2.16281532   0.09893824
597.00   2.15699988   0.09943601
598.00   2.15117481   0.09993544
599.00   2.14534013   0.10043653
600.00   2.13949582   0.10093929
601.00   2.13364189   0.10144372
602.00   2.12777834   0.10194982
603.00   2.12190517   0.10245760
604.00   2.11602238   0.10296705
605.00   2.11012998   0.10347819
606.00   2.10422795   0.10399100
607.00   2.09831631   0.10450551
608.00   2.09239505   0.10502170
609.00   2.08646418   0.10553958
610.00   2.08052369   0.10605916
611.00   2.07457359   0.10658043
612.00   2.06861388   0.10710340
613.00   2.06264455   0.10762808
614.00   2.05666561   0.10815446
615.00   2.05067705   0.10868255
616.00   2.04467889   0.10921234
617.00   2.03867111   0.10974386
618.00   2.03265373   0.11027708
619.00   2.02662674   0.11081203
620.00   2.02059013   0.11134869
621.00   2.01454392   0.11188708
622.00   2.00848811   0.11242720
623.00   2.00242268   0.11296905
624.00   1.99634765   0.11351262
625.00   1.99026302   0.11405794
626.00   1.98416878   0.11460499
627.00   1.97806494   0.11515378
628.00   1.97195149   0.11570431
629.00   1.96582844   0.11625659
630.00   1.95969579   0.11681061
631.00   1.95355354   0.11736639
632.00   1.94740168   0.11792392
633.00   1.94124023   0.11848321
634.00   1.93506918   0.11904426
635.00   1.92888853   0.11960707
636.00   1.92269828   0.12017164
637.00   1.91649843   0.12073798
638.00   1.91028899   0.12130609
639.00   1.90406995   0.12187598
640.00   1.89784132   0.12244764
641.00   1.89160309   0.12302107
642.00   1.88535527   0.12359629
643.00   1.87909785   0.12417329
644.00   1.87283084   0.12475208
645.00   1.86655424   0.12533266
646.00   1.86026805   0.12591502
647.00   1.85397227   0.12649919
648.00   1.84766690   0.12708515
649.00   1.84135194   0.12767290
650.00   1.83502739   0.12826247
651.00   1.82869326   0.12885383
652.00   1.82234953   0.12944701
653.00   1.81599622   0.13004199
654.00   1.80963333   0.13063879
655.00   1.80326084   0.13123741
656.00   1.79687878   0.13183784
657.00   1.79048713   0.13244009
658.00   1.78408590   0.13304417
659.00   1.77767509   0.13365008
660.00   1.77125469   0.13425781
661.00   1.76482471   0.13486738
662.00   1.75838516   0.13547878
663.00   1.75193602   0.13609202
664.00   1.74547731   0.13670710
665.00   1.73900901   0.13732403
666.00   1.73253114   0.13794280
667.00   1.72604370   0.13856341
668.00   1.71954668   0.13918588
669.00   1.71304008   0.13981021
670.00   1.70652391   0.14043639
671.00   1.69999816   0.14106442
672.00   1.69346284   0.14169432
673.00   1.68691795   0.14232609
674.00   1.68036348   0.14295972
675.00   1.67379945   0.14359522
676.00   1.66722584   0.14423260
677.00   1.66064267   0.14487185
678.00   1.65404993   0.14551298
679.00   1.64744762   0.14615599
680.00   1.64083574   0.14680088
681.00   1.63421429   0.14744766
682.00   1.62758328   0.14809633
683.00   1.62094270   0.14874689
684.00   1.61429256   0.14939934
685.00   1.60763286   0.15005369
686.00   1.60096359   0.15070994
687.00   1.59428476   0.15136809
688.00   1.58759636   0.15202815
689.00   1.58089841   0.15269012
690.00   1.57419090   0.15335399
691.00   1.56747382   0.15401978
692.00   1.56074719   0.15468749
693.00   1.55401100   0.15535711
694.00   1.54726525   0.15602866
695.00   1.54050995   0.15670213
696.00   1.53374509   0.15737752
697.00   1.52697067   0.15805485
698.00   1.52018670   0.15873410
699.00   1.51339318   0.15941529
700.00   1.50659010   0.16009842
701.00   1.49977747   0.16078349
702.00   1.49295529   0.16147050
703.00   1.48612356   0.16215946
704.00   1.47928228   0.16285037
705.00   1.47243145   0.16354322
706.00   1.46557107   0.16423803
707.00   1.45870115   0.16493480
708.00   1.45182167   0.16563352
709.00   1.44493265   0.16633421
710.00   1.43803409   0.16703686
711.00   1.43112598   0.16774148
712.00   1.42420832   0.16844806
713.00   1.41728113   0.16915662
714.00   1.41034439   0.16986716
715.00   1.40339811   0.17057967
716.00   1.39644228   0.17129416
717.00   1.38947692   0.17201064
718.00   1.38250202   0.17272910
719.00   1.37551758   0.17344955
720.00   1.36852360   0.17417199
721.00   1.36152008   0.17489642
722.00   1.35450703   0.17562286
723.00   1.34748444   0.17635129
724.00   1.34045231   0.17708172
725.00   1.33341065   0.17781415
726.00   1.32635946   0.17854860
727.00   1.31929874   0.17928505
728.00   1.31222848   0.18002352
729.00   1.30514869   0.18076400
730.00   1.29805937   0.18150650
731.00   1.29096053   0.18225102
732.00   1.28385215   0.18299756
733.00   1.27673425   0.18374613
734.00   1.26960681   0.18449673
735.00   1.26246985   0.18524936
736.00   1.25532337   0.18600402
737.00   1.24816736   0.18676072
738.00   1.24100182   0.18751946
739.00   1.23382677   0.18828024
740.00   1.22664219   0.18904306
741.00   1.21944808   0.18980794
742.00   1.21224446   0.19057486
743.00   1.20503132   0.19134383
744.00   1.19780865   0.19211486
745.00   1.19057647   0.19288795
746.00   1.18333477   0.19366310
747.00   1.17608355   0.19444032
748.00   1.16882282   0.19521959
749.00   1.16155257   0.19600094
750.00   1.15427280   0.19678436
751.00   1.14698352   0.19756986
752.00   1.13968473   0.19835743
753.00   1.13237642   0.19914707
754.00   1.12505861   0.19993881
755.00   1.11773128   0.20073262
756.00   1.11039444   0.20152853
757.00   1.10304809   0.20232652
758.00   1.09569224   0.20312661
759.00   1.08832687   0.20392879
760.00   1.08095200   0.20473307
761.00   1.07356762   0.20553945
762.00   1.06617374   0.20634793
763.00   1.05877035   0.20715852
764.00   1.05135746   0.20797122
765.00   1.04393507   0.20878603
766.00   1.03650317   0.20960296
767.00   1.02906177   0.21042200
768.00   1.02161087   0.21124316
769.00   1.01415048   0.21206644
770.00   1.00668058   0.21289185
771.00   0.99920118   0.21371939
772.00   0.99171229   0.21454905
773.00   0.98421390   0.21538085
774.00   0.97670601   0.21621478
775.00   0.96918863   0.21705086
776.00   0.96166176   0.21788907
777.00   0.95412539   0.21872942
778.00   0.94657953   0.21957193
779.00   0.93902417   0.22041658
780.00   0.93145933   0.22126338
781.00   0.92388500   0.22211233
782.00   0.91630117   0.22296345
783.00   0.90870786   0.22381672
784.00   0.90110506   0.22467215
785.00   0.89349278   0.22552975
786.00   0.88587100   0.22638952
787.00   0.87823975   0.22725145
788.00   0.87059901   0.22811556
789.00   0.86294878   0.22898185
790.00   0.85528907   0.22985031
791.00   0.84761988   0.23072095
792.00   0.83994121   0.23159378
793.00   0.83225306   0.23246879
794.00   0.82455543   0.23334599
795.00   0.81684832   0.23422538
796.00   0.80913173   0.23510697
797.00   0.80140567   0.23599075
798.00   0.79367013   0.23687673
799.00   0.78592511   0.23776491
800.00   0.77817062   0.23865530
801.00   0.77040666   0.23954790
802.00   0.76263322   0.24044270
803.00   0.75485031   0.24133972
804.00   0.74705793   0.24223895
805.00   0.73925608   0.24314040
806.00   0.73144476   0.24404407
807.00   0.72362397   0.24494996
808.00   0.71579372   0.24585808
809.00   0.70795400   0.24676843
810.00   0.70010481   0.24768101
811.00   0.69224615   0.24859582
812.00   0.68437804   0.24951287
813.00   0.67650045   0.25043216
814.00   0.66861341   0.25135369
815.00   0.66071690   0.25227746
816.00   0.65281094   0.25320348
817.00   0.64489551   0.25413175
818.00   0.63697062   0.25506227
819.00   0.62903628   0.25599505
820.00   0.62109247   0.25693008
821.00   0.61313922   0.25786738
822.00   0.60517650   0.25880693
823.00   0.59720433   0.25974876
824.00   0.58922271   0.26069285
825.00   0.58123163   0.26163921
826.00   0.57323110   0.26258784
827.00   0.56522112   0.26353875
828.00   0.55720168   0.26449194
829.00   0.54917280   0.26544741
830.00   0.54113447   0.26640517
831.00   0.53308669   0.26736521
832.00   0.52502947   0.26832754
833.00   0.51696279   0.26929216
834.00   0.50888667   0.27025908
835.00   0.50080111   0.27122829
836.00   0.49270610   0.27219980
837.00   0.48460165   0.27317362
838.00   0.47648776   0.27414974
839.00   0.46836443   0.27512817
840.00   0.46023166   0.27610891
841.00   0.45208944   0.27709196
842.00   0.44393779   0.27807732
843.00   0.43577670   0.27906501
844.00   0.42760618   0.28005502
845.00   0.41942622   0.28104735
846.00   0.41123682   0.28204200
847.00   0.40303799   0.28303899
848.00   0.39482973   0.28403830
849.00   0.38661203   0.28503995
850.00   0.37838490   0.28604394
851.00   0.37014834   0.28705026
852.00   0.36190236   0.28805893
853.00   0.35364694   0.28906994
854.00   0.34538209   0.29008330
855.00   0.33710782   0.29109901
856.00   0.32882412   0.29211707
857.00   0.32053100   0.29313749
858.00   0.31222845   0.29416026
859.00   0.30391648   0.29518540
860.00   0.29559509   0.29621289
861.00   0.28726427   0.29724276
862.00   0.27892403   0.29827499
863.00   0.27057438   0.29930959
864.00   0.26221530   0.30034656
865.00   0.25384681   0.30138592
866.00   0.24546890   0.30242765
867.00   0.23708157   0.30347176
868.00   0.22868483   0.30451825
869.00   0.22027867   0.30556713
870.00   0.21186310   0.30661840
871.00   0.20343811   0.30767207
872.00   0.19500372   0.30872812
873.00   0.18655991   0.30978658
874.00   0.17810670   0.31084743
875.00   0.16964407   0.31191069
876.00   0.16117204   0.31297635
877.00   0.15269059   0.31404442
878.00   0.14419975   0.31511490
879.00   0.13569949   0.31618779
880.00   0.12718984   0.31726310
881.00   0.11867078   0.31834082
882.00   0.11014231   0.31942097
883.00   0.10160445   0.32050354
884.00   0.09305718   0.32158853
885.00   0.08450051   0.32267596
886.00   0.07593445   0.32376581
887.00   0.06735898   0.32485810
888.00   0.05877412   0.32595282
889.00   0.05017986   0.32704999
890.00   0.04157621   0.32814959
891.00   0.03296316   0.32925164
892.00   0.02434072   0.33035614
893.00   0.01570889   0.33146308
894.00   0.00706766   0.33257248
895.00  -0.00158295   0.33368433
896.00  -0.01024296   0.33479864
897.00  -0.01891235   0.33591541
898.00  -0.02759114   0.33703464
899.00  -0.03627931   0.33815634
900.00  -0.04497686   0.33928050
901.00  -0.05368380   0.34040714
902.00  -0.06240013   0.34153625
903.00  -0.07112584   0.34266783
904.00  -0.07986093   0.34380189
905.00  -0.08860540   0.34493843
906.00  -0.09735925   0.34607746
907.00  -0.10612249   0.34721897
908.00  -0.11489510   0.34836297
909.00  -0.12367709   0.34950946
910.00  -0.13246845   0.35065845
911.00  -0.14126919   0.35180993
912.00  -0.15007931   0.35296391
913.00  -0.15889880   0.35412039
914.00  -0.16772766   0.35527938
915.00  -0.17656590   0.35644087
916.00  -0.18541351   0.35760487
917.00  -0.19427048   0.35877139
918.00  -0.20313683   0.35994042
919.00  -0.21201254   0.36111196
920.00  -0.22089762   0.36228603
921.00  -0.22979207   0.36346262
922.00  -0.23869588   0.36464173
923.00  -0.24760906   0.36582337
924.00  -0.25653160   0.36700754
925.00  -0.26546351   0.36819425
926.00  -0.27440477   0.36938349
927.00  -0.28335540   0.37057527
928.00  -0.29231538   0.37176959
929.00  -0.30128473   0.37296645
930.00  -0.31026343   0.37416585
931.00  -0.31925149   0.37536781
932.00  -0.32824890   0.37657232
933.00  -0.33725567   0.37777938
934.00  -0.34627179   0.37898899
935.00  -0.35529727   0.38020117
936.00  -0.36433210   0.38141591
937.00  -0.37337628   0.38263321
938.00  -0.38242981   0.38385308
939.00  -0.39149269   0.38507551
940.00  -0.40056491   0.38630052
941.00  -0.40964648   0.38752810
942.00  -0.41873740   0.38875826
943.00  -0.42783767   0.38999100
944.00  -0.43694728   0.39122633
945.00  -0.44606623   0.39246423
946.00  -0.45519452   0.39370473
947.00  -0.46433216   0.39494781
948.00  -0.47347914   0.39619349
949.00  -0.48263545   0.39744176
950.00  -0.49180111   0.39869263
951.00  -0.50097610   0.39994609
952.00  -0.51016042   0.40120217
953.00  -0.51935409   0.40246084
954.00  -0.52855708   0.40372213
955.00  -0.53776941   0.40498603
956.00  -0.54699108   0.40625254
957.00  -0.55622207   0.40752166
958.00  -0.56546240   0.40879340
959.00  -0.57471205   0.41006777
960.00  -0.58397103   0.41134476
961.00  -0.59323935   0.41262437
962.00  -0.60251698   0.41390661
963.00  -0.61180394   0.41519149
964.00  -0.62110023   0.41647900
965.00  -0.63040584   0.41776914
966.00  -0.63972078   0.41906192
967.00  -0.64904503   0.42035735
968.00  -0.65837861   0.42165542
969.00  -0.66772150   0.42295613
970.00  -0.67707371   0.42425950
971.00  -0.68643525   0.42556552
972.00  -0.69580609   0.42687419
973.00  -0.70518626   0.42818552
974.00  -0.71457573   0.42949951
975.00  -0.72397453   0.43081616
976.00  -0.73338263   0.43213547
977.00  -0.74280004   0.43345746
978.00  -0.75222677   0.43478211
979.00  -0.76166281   0.43610943
980.00  -0.77110815   0.43743944
981.00  -0.78056280   0.43877211
982.00  -0.79002676   0.44010747
983.00  -0.79950002   0.44144551
984.00  -0.80898259   0.44278624
985.00  -0.81847446   0.44412966
986.00  -0.82797564   0.44547576
987.00  -0.83748611   0.44682456
988.00  -0.84700589   0.44817605
989.00  -0.85653496   0.44953025
990.00  -0.86607334   0.45088714
991.00  -0.87562101   0.45224674
992.00  -0.88517798   0.45360904
993.00  -0.89474424   0.45497405
994.00  -0.90431980   0.45634177
995.00  -0.91390465   0.45771221
996.00  -0.92349879   0.45908536
997.00  -0.93310222   0.46046123
998.00  -0.94271495   0.46183983
999.00  -0.95233696   0.46322114
1000.00  -0.96196826   0.46460519
1001.00  -0.97160885   0.46599196
1002.00  -0.98125873   0.46738146
1003.00  -0.99091789   0.46877370
1004.00  -1.00058633   0.47016868
1005.00  -1.01026406   0.47156639
1006.00  -1.01995107   0.47296685
1007.00  -1.02964736   0.47437005
1008.00  -1.03935293   0.47577599
1009.00  -1.04906778   0.47718469
1010.00  -1.05879191   0.47859614
1011.00  -1.06852531   0.48001034
1012.00  -1.07826799   0.48142730
1013.00  -1.08801994   0.48284703
1014.00  -1.09778117   0.48426951
1015.00  -1.10755167   0.48569476
1016.00  -1.11733145   0.48712277
1017.00  -1.12712049   0.48855356
1018.00  -1.13691880   0.48998712
1019.00  -1.14672638   0.49142345
1020.00  -1.15654323   0.49286256
1021.00  -1.16636935   0.49430445
1022.00  -1.17620473   0.49574913
1023.00  -1.18604937   0.49719659
1024.00  -1.19590328   0.49864684
1025.00  -1.20576645   0.50009987
1026.00  -1.21563888   0.50155570
1027.00  -1.22552057   0.50301433
1028.00  -1.23541153   0.50447576
1029.00  -1.24531173   0.50593998
1030.00  -1.25522120   0.50740701
1031.00  -1.26513992   0.50887685
1032.00  -1.27506790   0.51034949
1033.00  -1.28500513   0.51182494
1034.00  -1.29495161   0.51330321
1035.00  -1.30490735   0.51478429
1036.00  -1.31487233   0.51626819
1037.00  -1.32484657   0.51775492
1038.00  -1.33483005   0.51924446
1039.00  -1.34482278   0.52073684
1040.00  -1.35482476   0.52223204
1041.00  -1.36483598   0.52373007
1042.00  -1.37485645   0.52523094
1043.00  -1.38488616   0.52673464
1044.00  -1.39492511   0.52824118
1045.00  -1.40497331   0.52975056
1046.00  -1.41503074   0.53126279
1047.00  -1.42509741   0.53277786
1048.00  -1.43517332   0.53429579
1049.00  -1.44525847   0.53581656
1050.00  -1.45535285   0.53734019
1051.00  -1.46545647   0.53886667
1052.00  -1.47556932   0.54039602
1053.00  -1.48569140   0.54192822
1054.00  -1.49582272   0.54346329
1055.00  -1.50596326   0.54500123
1056.00  -1.51611304   0.54654204
1057.00  -1.52627204   0.54808572
1058.00  -1.53644027   0.54963227
1059.00  -1.54661773   0.55118170
1060.00  -1.55680441   0.55273401
1061.00  -1.56700031   0.55428920
1062.00  -1.57720544   0.55584728
1063.00  -1.58741979   0.55740824
1064.00  -1.59764336   0.55897209
1065.00  -1.60787615   0.56053884
1066.00  -1.61811815   0.56210848
1067.00  -1.62836938   0.56368101
1068.00  -1.63862982   0.56525645
1069.00  -1.64889948   0.56683479
1070.00  -1.65917835   0.56841603
1071.00  -1.66946643   0.57000018
1072.00  -1.67976372   0.57158724
1073.00  -1.69007023   0.57317722
1074.00  -1.70038595   0.57477011
1075.00  -1.71071087   0.57636591
1076.00  -1.72104500   0.57796464
1077.00  -1.73138834   0.57956629
1078.00  -1.74174088   0.58117086
1079.00  -1.75210263   0.58277836
1080.00  -1.76247358   0.58438879
1081.00  -1.77285373   0.58600216
1082.00  -1.78324309   0.58761846
1083.00  -1.79364164   0.58923769
1084.00  -1.80404939   0.59085987
1085.00  -1.81446634   0.59248499
1086.00  -1.82489249   0.59411305
1087.00  -1.83532783   0.59574407
1088.00  -1.84577237   0.59737803
1089.00  -1.85622610   0.59901494
1090.00  -1.86668902   0.60065482
1091.00  -1.87716113   0.60229764
1092.00  -1.88764243   0.60394343
1093.00  -1.89813292   0.60559219
1094.00  -1.90863260   0.60724390
1095.00  -1.91914146   0.60889859
1096.00  -1.92965952   0.61055625
1097.00  -1.94018675   0.61221687
1098.00  -1.95072317   0.61388048
1099.00  -1.96126877   0.61554706
1100.00  -1.97182355   0.61721662
1101.00  -1.98238751   0.61888917
1102.00  -1.99296065   0.62056470
1103.00  -2.00354296   0.62224322
1104.00  -2.01413446   0.62392473
1105.00  -2.02473512   0.62560924
1106.00  -2.03534497   0.62729673
1107.00  -2.04596398   0.62898723
1108.00  -2.05659217   0.63068073
1109.00  -2.06722953   0.63237723
1110.00  -2.07787606   0.63407674
1111.00  -2.08853175   0.63577925
1112.00  -2.09919662   0.63748477
1113.00  -2.10987065   0.63919331
1114.00  -2.12055384   0.64090487
1115.00  -2.13124620   0.64261944
1116.00  -2.14194773   0.64433703
1117.00  -2.15265841   0.64605765
1118.00  -2.16337825   0.64778129
1119.00  -2.17410726   0.64950796
1120.00  -2.18484542   0.65123766
1121.00  -2.19559274   0.65297039
1122.00  -2.20634922   0.65470616
1123.00  -2.21711485   0.65644497
1124.00  -2.22788963   0.65818682
1125.00  -2.23867357   0.65993171
1126.00  -2.24946666   0.66167965
1127.00  -2.26026890   0.66343063
1128.00  -2.27108029   0.66518467
1129.00  -2.28190083   0.66694176
1130.00  -2.29273051   0.66870190
1131.00  -2.30356934   0.67046511
1132.00  -2.31441731   0.67223137
1133.00  -2.32527443   0.67400070
1134.00  -2.33614069   0.67577309
1135.00  -2.34701609   0.67754855
1136.00  -2.35790063   0.67932708
1137.00  -2.36879431   0.68110869
1138.00  -2.37969713   0.68289337
1139.00  -2.39060909   0.68468113
1140.00  -2.40153018   0.68647196
1141.00  -2.41246040   0.68826589
1142.00  -2.42339976   0.69006290
1143.00  -2.43434825   0.69186299
1144.00  -2.44530587   0.69366618
1145.00  -2.45627262   0.69547246
1146.00  -2.46724850   0.69728183
1147.00  -2.47823350   0.69909431
1148.00  -2.48922764   0.70090988
1149.00  -2.50023089   0.70272856
1150.00  -2.51124328   0.70455034
1151.00  -2.52226478   0.70637523
1152.00  -2.53329540   0.70820324
1153.00  -2.54433515   0.71003435
1154.00  -2.55538402   0.71186858
1155.00  -2.56644200   0.71370593
1156.00  -2.57750910   0.71554640
1157.00  -2.58858531   0.71738999
1158.00  -2.59967064   0.71923671
1159.00  -2.61076509   0.72108655
1160.00  -2.62186864   0.72293953
1161.00  -2.63298131   0.72479564
1162.00  -2.64410309   0.72665488
1163.00  -2.65523397   0.72851726
1164.00  -2.66637396   0.73038278
1165.00  -2.67752306   0.73225145
1166.00  -2.68868127   0.73412326
1167.00  -2.69984858   0.73599822
1168.00  -2.71102499   0.73787632
1169.00  -2.72221050   0.73975758
1170.00  -2.73340511   0.74164200
1171.00  -2.74460882   0.74352957
1172.00  -2.75582163   0.74542031
1173.00  -2.76704354   0.74731420
1174.00  -2.77827454   0.74921127
1175.00  -2.78951464   0.75111150
1176.00  -2.80076383   0.75301490
1177.00  -2.81202211   0.75492147
1178.00  -2.82328949   0.75683121
1179.00  -2.83456595   0.75874414
1180.00  -2.84585150   0.76066024
1181.00  -2.85714614   0.76257953
1182.00  -2.86844987   0.76450200
1183.00  -2.87976268   0.76642766
1184.00  -2.89108457   0.76835651
1185.00  -2.90241555   0.77028855
1186.00  -2.91375561   0.77222379
1187.00  -2.92510475   0.77416222
1188.00  -2.93646296   0.77610385
1189.00  -2.94783026   0.77804869
1190.00  -2.95920663   0.77999673
1191.00  -2.97059208   0.78194798
1192.00  -2.98198660   0.78390243
1193.00  -2.99339020   0.78586010
1194.00  -3.00480286   0.78782098
1195.00  -3.01622460   0.78978508
1196.00  -3.02765541   0.79175240
1197.00  -3.03909528   0.79372294
1198.00  -3.05054422   0.79569671
1199.00  -3.06200223   0.79767370
1200.00  -3.07346930   0.79965392
1201.00  -3.08494544   0.80163738
1202.00  -3.09643063   0.80362407
1203.00  -3.10792489   0.80561399
1204.00  -3.11942821   0.80760715
1205.00  -3.13094059   0.80960356
1206.00  -3.14246202   0.81160321
1207.00  -3.15399251   0.81360610
1208.00  -3.16553206   0.81561225
1209.00  -3.17708066   0.81762164
1210.00  -3.18863831   0.81963429
1211.00  -3.20020501   0.82165020
1212.00  -3.21178076   0.82366937
1213.00  -3.22336556   0.82569179
1214.00  -3.23495941   0.82771748
1215.00  -3.24656231   0.82974644
1216.00  -3.25817425   0.83177866
1217.00  -3.26979523   0.83381416
1218.00  -3.28142526   0.83585293
1219.00  -3.29306433   0.83789497
1220.00  -3.30471244   0.83994029
1221.00  -3.31636959   0.84198890
1222.00  -3.32803577   0.84404079
1223.00  -3.33971100   0.84609596
1224.00  -3.35139525   0.84815442
1225.00  -3.36308855   0.85021617
1226.00  -3.37479087   0.85228122
1227.00  -3.38650223   0.85434956
1228.00  -3.39822261   0.85642120
1229.00  -3.40995203   0.85849613
1230.00  -3.42169047   0.86057438
1231.00  -3.43343794   0.86265592
1232.00  -3.44519444   0.86474078
1233.00  -3.45695996   0.86682894
1234.00  -3.46873450   0.86892042
1235.00  -3.48051807   0.87101521
1236.00  -3.49231066   0.87311332
1237.00  -3.50411226   0.87521475
1238.00  -3.51592288   0.87731950
1239.00  -3.52774252   0.87942758
1240.00  -3.53957118   0.88153898
1241.00  -3.55140885   0.88365372
1242.00  -3.56325553   0.88577178
1243.00  -3.57511123   0.88789318
1244.00  -3.58697593   0.89001792
1245.00  -3.59884965   0.89214600
1246.00  -3.61073237   0.89427742
1247.00  -3.62262410   0.89641218
1248.00  -3.63452484   0.89855029
1249.00  -3.64643458   0.90069175
1250.00  -3.65835332   0.90283656
1251.00  -3.67028106   0.90498472
1252.00  -3.68221781   0.90713624
1253.00  -3.69416356   0.90929112
1254.00  -3.70611830   0.91144936
1255.00  -3.71808204   0.91361097
1256.00  -3.73005477   0.91577594
1257.00  -3.74203650   0.91794428
1258.00  -3.75402723   0.92011599
1259.00  -3.76602694   0.92229107
1260.00  -3.77803565   0.92446953
1261.00  -3.79005334   0.92665137
1262.00  -3.80208002   0.92883659
1263.00  -3.81411569   0.93102519
1264.00  -3.82616035   0.93321718
1265.00  -3.83821399   0.93541255
1266.00  -3.85027661   0.93761132
1267.00  -3.86234821   0.93981348
1268.00  -3.87442880   0.94201903
1269.00  -3.88651836   0.94422798
1270.00  -3.89861690   0.94644034
1271.00  -3.91072442   0.94865609
1272.00  -3.92284091   0.95087525
1273.00  -3.93496638   0.95309782
1274.00  -3.94710082   0.95532379
1275.00  -3.95924423   0.95755318
1276.00  -3.97139662   0.95978598
1277.00  -3.98355797   0.96202220
1278.00  -3.99572829   0.96426184
1279.00  -4.00790757   0.96650491
1280.00  -4.02009582   0.96875139
1281.00  -4.03229304   0.97100130
1282.00  -4.04449921   0.97325465
1283.00  -4.05671435   0.97551142
1284.00  -4.06893845   0.97777163
1285.00  -4.08117151   0.98003527
1286.00  -4.09341352   0.98230235
1287.00  -4.10566450   0.98457287
1288.00  -4.11792442   0.98684684
1289.00  -4.13019330   0.98912425
1290.00  -4.14247113   0.99140511
1291.00  -4.15475792   0.99368943
1292.00  -4.16705365   0.99597719
1293.00  -4.17935833   0.99826841
1294.00  -4.19167196   1.00056309
1295.00  -4.20399454   1.00286123
1296.00  -4.21632606   1.00516283
1297.00  -4.22866652   1.00746790
1298.00  -4.24101592   1.00977643
1299.00  -4.25337427   1.01208844
1300.00  -4.26574156   1.01440391
1301.00  -4.27811778   1.01672287
1302.00  -4.29050294   1.01904530
1303.00  -4.30289704   1.02137120
1304.00  -4.31530007   1.02370060
1305.00  -4.32771203   1.02603347
1306.00  -4.34013292   1.02836983
1307.00  -4.35256275   1.03070968
1308.00  -4.36500151   1.03305303
1309.00  -4.37744919   1.03539986
1310.00  -4.38990580   1.03775020
1311.00  -4.40237133   1.04010403
1312.00  -4.41484579   1.04246136
1313.00  -4.42732917   1.04482220
1314.00  -4.43982147   1.04718654
1315.00  -4.45232269   1.04955440
1316.00  -4.46483283   1.05192576
1317.00  -4.47735189   1.05430063
1318.00  -4.48987987   1.05667902
1319.00  -4.50241676   1.05906093
1320.00  -4.51496256   1.06144636
1321.00  -4.52751727   1.06383531
1322.00  -4.54008090   1.06622779
1323.00  -4.55265343   1.06862380
1324.00  -4.56523488   1.07102333
1325.00  -4.57782523   1.07342640
1326.00  -4.59042448   1.07583300
1327.00  -4.60303264   1.07824314
1328.00  -4.61564971   1.08065682
1329.00  -4.62827567   1.08307404
1330.00  -4.64091053   1.08549480
1331.00  -4.65355430   1.08791911
1332.00  -4.66620696   1.09034697
1333.00  -4.67886852   1.09277838
1334.00  -4.69153897   1.09521335
1335.00  -4.70421832   1.09765187
1336.00  -4.71690656   1.10009395
1337.00  -4.72960369   1.10253959
1338.00  -4.74230971   1.10498879
1339.00  -4.75502461   1.10744156
1340.00  -4.76774841   1.10989790
1341.00  -4.78048109   1.11235781
1342.00  -4.79322265   1.11482129
1343.00  -4.80597310   1.11728834
1344.00  -4.81873243   1.11975898
1345.00  -4.83150064   1.12223319
1346.00  -4.84427773   1.12471098
1347.00  -4.85706370   1.12719236
1348.00  -4.86985855   1.12967733
1349.00  -4.88266226   1.13216589
1350.00  -4.89547486   1.13465804
1351.00  -4.90829632   1.13715378
1352.00  -4.92112666   1.13965312
1353.00  -4.93396586   1.14215606
1354.00  -4.94681394   1.14466260
1355.00  -4.95967088   1.14717274
1356.00  -4.97253669   1.14968649
1357.00  -4.98541136   1.15220385
1358.00  -4.99829489   1.15472481
1359.00  -5.01118729   1.15724939
1360.00  -5.02408855   1.15977759
1361.00  -5.03699866   1.16230941
1362.00  -5.04991764   1.16484484
1363.00  -5.06284547   1.16738390
1364.00  -5.07578215   1.16992658
1365.00  -5.08872769   1.17247289
1366.00  -5.10168208   1.17502283
1367.00  -5.11464532   1.17757640
1368.00  -5.12761741   1.18013360
1369.00  -5.14059835   1.18269445
1370.00  -5.15358814   1.18525893
1371.00  -5.16658677   1.18782705
1372.00  -5.17959425   1.19039882
1373.00  -5.19261057   1.19297423
1374.00  -5.20563573   1.19555329
1375.00  -5.21866973   1.19813600
1376.00  -5.23171257   1.20072237
1377.00  -5.24476425   1.20331239
1378.00  -5.25782476   1.20590607
1379.00  -5.27089411   1.20850341
1380.00  -5.28397229   1.21110441
1381.00  -5.29705930   1.21370907
1382.00  -5.31015514   1.21631741
1383.00  -5.32325982   1.21892941
1384.00  -5.33637332   1.22154509
1385.00  -5.34949564   1.22416444
1386.00  -5.36262680   1.22678747
1387.00  -5.37576677   1.22941417
1388.00  -5.38891557   1.23204456
1389.00  -5.40207319   1.23467863
1390.00  -5.41523963   1.23731639
1391.00  -5.42841489   1.23995783
1392.00  -5.44159896   1.24260297
1393.00  -5.45479185   1.24525180
1394.00  -5.46799356   1.24790433
1395.00  -5.48120407   1.25056055
1396.00  -5.49442340   1.25322048
1397.00  -5.50765154   1.25588410
1398.00  -5.52088849   1.25855143
1399.00  -5.53413424   1.26122247
1400.00  -5.54738880   1.26389722
1401.00  -5.56065217   1.26657568
1402.00  -5.57392434   1.26925785
1403.00  -5.58720531   1.27194374
1404.00  -5.60049508   1.27463335
1405.00  -5.61379365   1.27732669
1406.00  -5.62710102   1.28002374
1407.00  -5.64041718   1.28272452
1408.00  -5.65374214   1.28542903
1409.00  -5.66707589   1.28813727
1410.00  -5.68041844   1.29084924
1411.00  -5.69376977   1.29356495
1412.00  -5.70712990   1.29628440
1413.00  -5.72049881   1.29900758
1414.00  -5.73387651   1.30173451
1415.00  -5.74726299   1.30446518
1416.00  -5.76065826   1.30719960
1417.00  -5.77406231   1.30993777
1418.00  -5.78747514   1.31267969
1419.00  -5.80089676   1.31542536
1420.00  -5.81432715   1.31817479
1421.00  -5.82776631   1.32092798
1422.00  -5.84121425   1.32368493
1423.00  -5.85467097   1.32644565
1424.00  -5.86813646   1.32921013
1425.00  -5.88161072   1.33197837
1426.00  -5.89509375   1.33475039
1427.00  -5.90858555   1.33752618
1428.00  -5.92208612   1.34030574
1429.00  -5.93559545   1.34308909
1430.00  -5.94911354   1.34587621
1431.00  -5.96264040   1.34866711
1432.00  -5.97617602   1.35146180
1433.00  -5.98972040   1.35426027
1434.00  -6.00327354   1.35706253
1435.00  -6.01683544   1.35986859
1436.00  -6.03040609   1.36267843
1437.00  -6.04398550   1.36549208
1438.00  -6.05757366   1.36830952
1439.00  -6.07117057   1.37113076
1440.00  -6.08477623   1.37395580
1441.00  -6.09839064   1.37678465
1442.00  -6.11201380   1.37961731
1443.00  -6.12564571   1.38245377
1444.00  -6.13928635   1.38529405
1445.00  -6.15293575   1.38813814
1446.00  -6.16659388   1.39098605
1447.00  -6.18026075   1.39383778
1448.00  -6.19393637   1.39669333
1449.00  -6.20762072   1.39955270
1450.00  -6.22131381   1.40241590
1451.00  -6.23501563   1.40528292
1452.00  -6.24872618   1.40815378
1453.00  -6.26244547   1.41102847
1454.00  -6.27617349   1.41390699
1455.00  -6.28991023   1.41678936
1456.00  -6.30365571   1.41967556
1457.00  -6.31740991   1.42256560
1458.00  -6.33117283   1.42545949
1459.00  -6.34494448   1.42835722
1460.00  -6.35872485   1.43125880
1461.00  -6.37251394   1.43416424
1462.00  -6.38631175   1.43707353
1463.00  -6.40011828   1.43998667
1464.00  -6.41393353   1.44290367
1465.00  -6.42775748   1.44582453
1466.00  -6.44159016   1.44874926
1467.00  -6.45543154   1.45167785
1468.00  -6.46928163   1.45461030
1469.00  -6.48314044   1.45754663
1470.00  -6.49700795   1.46048683
1471.00  -6.51088417   1.46343090
1472.00  -6.52476909   1.46637885
1473.00  -6.53866272   1.46933068
1474.00  -6.55256504   1.47228639
1475.00  -6.56647607   1.47524598
1476.00  -6.58039580   1.47820945
1477.00  -6.59432422   1.48117682
1478.00  -6.60826134   1.48414808
1479.00  -6.62220716   1.48712322
1480.00  -6.63616167   1.49010227
1481.00  -6.65012487   1.49308521
1482.00  -6.66409676   1.49607204
1483.00  -6.67807734   1.49906279
1484.00  -6.69206661   1.50205743
1485.00  -6.70606456   1.50505598
1486.00  -6.72007120   1.50805844
1487.00  -6.73408652   1.51106481
1488.00  -6.74811053   1.51407509
1489.00  -6.76214321   1.51708929
1490.00  -6.77618457   1.52010741
1491.00  -6.79023461   1.52312944
1492.00  -6.80429333   1.52615540
1493.00  -6.81836072   1.52918529
1494.00  -6.83243678   1.53221910
1495.00  -6.84652152   1.53525683
1496.00  -6.86061493   1.53829850
1497.00  -6.87471700   1.54134411
1498.00  -6.88882774   1.54439365
1499.00  -6.90294715   1.54744712
1500.00  -6.91707522   1.55050454
1501.00  -6.93121195   1.55356590
1502.00  -6.94535735   1.55663121
1503.00  -6.95951141   1.55970046
1504.00  -6.97367412   1.56277366
1505.00  -6.98784549   1.56585082
1506.00  -7.00202552   1.56893192
1507.00  -7.01621420   1.57201699
1508.00  -7.03041153   1.57510601
1509.00  -7.04461752   1.57819899
1510.00  -7.05883215   1.58129594
1511.00  -7.07305544   1.58439685
1512.00  -7.08728737   1.58750173
1513.00  -7.10152794   1.59061058
1514.00  -7.11577716   1.59372341
1515.00  -7.13003502   1.59684020
1516.00  -7.14430152   1.59996098
1517.00  -7.15857667   1.60308573
1518.00  -7.17286045   1.60621446
1519.00  -7.18715286   1.60934718
1520.00  -7.20145391   1.61248388
1521.00  -7.21576360   1.61562457
1522.00  -7.23008192   1.61876925
1523.00  -7.24440886   1.62191793
1524.00  -7.25874444   1.62507060
1525.00  -7.27308865   1.62822726
1526.00  -7.28744148   1.63138793
1527.00  -7.30180293   1.63455259
1528.00  -7.31617301   1.63772126
1529.00  -7.33055171   1.64089394
1530.00  -7.34493904   1.64407063
1531.00  -7.35933498   1.64725132
1532.00  -7.37373953   1.65043603
1533.00  -7.38815271   1.65362475
1534.00  -7.40257449   1.65681749
1535.00  -7.41700489   1.66001425
1536.00  -7.43144391   1.66321504
1537.00  -7.44589153   1.66641984
1538.00  -7.46034776   1.66962868
1539.00  -7.47481260   1.67284154
1540.00  -7.48928604   1.67605843
1541.00  -7.50376809   1.67927936
1542.00  -7.51825874   1.68250432
1543.00  -7.53275799   1.68573332
1544.00  -7.54726584   1.68896636
1545.00  -7.56178229   1.69220344
1546.00  -7.57630733   1.69544456
1547.00  -7.59084097   1.69868973
1548.00  -7.60538321   1.70193895
1549.00  -7.61993403   1.70519222
1550.00  -7.63449345   1.70844955
1551.00  -7.64906145   1.71171093
1552.00  -7.66363805   1.71497637
1553.00  -7.67822323   1.71824587
1554.00  -7.69281699   1.72151943
1555.00  -7.70741934   1.72479705
1556.00  -7.72203026   1.72807875
1557.00  -7.73664977   1.73136451
1558.00  -7.75127786   1.73465434
1559.00  -7.76591453   1.73794824
1560.00  -7.78055977   1.74124623
1561.00  -7.79521358   1.74454829
1562.00  -7.80987597   1.74785442
1563.00  -7.82454692   1.75116465
1564.00  -7.83922645   1.75447895
1565.00  -7.85391455   1.75779735
1566.00  -7.86861121   1.76111983
1567.00  -7.88331644   1.76444640
1568.00  -7.89803023   1.76777707
1569.00  -7.91275258   1.77111184
1570.00  -7.92748349   1.77445070
1571.00  -7.94222297   1.77779366
1572.00  -7.95697100   1.78114072
1573.00  -7.97172758   1.78449189
1574.00  -7.98649273   1.78784717
1575.00  -8.00126642   1.79120655
1576.00  -8.01604866   1.79457005
1577.00  -8.03083946   1.79793766
1578.00  -8.04563880   1.80130938
1579.00  -8.06044669   1.80468523
1580.00  -8.07526313   1.80806519
1581.00  -8.09008811   1.81144928
1582.00  -8.10492163   1.81483749
1583.00  -8.11976370   1.81822983
1584.00  -8.13461430   1.82162630
1585.00  -8.14947344   1.82502690
1586.00  -8.16434112   1.82843163
1587.00  -8.17921733   1.83184050
1588.00  -8.19410208   1.83525350
1589.00  -8.20899535   1.83867065
1590.00  -8.22389716   1.84209194
1591.00  -8.23880750   1.84551737
1592.00  -8.25372636   1.84894695
1593.00  -8.26865375   1.85238068
1594.00  -8.28358966   1.85581856
1595.00  -8.29853410   1.85926060
1596.00  -8.31348705   1.86270679
1597.00  -8.32844853   1.86615714
1598.00  -8.34341852   1.86961164
1599.00  -8.35839703   1.87307032
1600.00  -8.37338406   1.87653315
1601.00  -8.38837960   1.88000015
1602.00  -8.40338365   1.88347132
1603.00  -8.41839621   1.88694667
1604.00  -8.43341728   1.89042618
1605.00  -8.44844686   1.89390987
1606.00  -8.46348494   1.89739774
1607.00  -8.47853153   1.90088979
1608.00  -8.49358662   1.90438602
1609.00  -8.50865021   1.90788644
1610.00  -8.52372231   1.91139104
1611.00  -8.53880290   1.91489983
1612.00  -8.55389198   1.91841281
1613.00  -8.56898956   1.92192999
1614.00  -8.58409564   1.92545136
1615.00  -8.59921020   1.92897692
1616.00  -8.61433326   1.93250669
1617.00  -8.62946481   1.93604066
1618.00  -8.64460484   1.93957884
1619.00  -8.65975336   1.94312122
1620.00  -8.67491036   1.94666780
1621.00  -8.69007585   1.95021860
1622.00  -8.70524981   1.95377362
1623.00  -8.72043226   1.95733284
1624.00  -8.73562318   1.96089629
1625.00  -8.75082258   1.96446395
1626.00  -8.76603046   1.96803584
1627.00  -8.78124681   1.97161195
1628.00  -8.79647163   1.97519229
1629.00  -8.81170492   1.97877685
1630.00  -8.82694668   1.98236565
1631.00  -8.84219691   1.98595867
1632.00  -8.85745560   1.98955594
1633.00  -8.87272276   1.99315744
1634.00  -8.88799837   1.99676317
1635.00  -8.90328245   2.00037315
1636.00  -8.91857499   2.00398738
1637.00  -8.93387599   2.00760585
1638.00  -8.94918544   2.01122856
1639.00  -8.96450335   2.01485553
1640.00  -8.97982971   2.01848675
1641.00  -8.99516453   2.02212222
1642.00  -9.01050779   2.02576196
1643.00  -9.02585950   2.02940594
1644.00  -9.04121966   2.03305420
1645.00  -9.05658826   2.03670671
1646.00  -9.07196531   2.04036349
1647.00  -9.08735080   2.04402453
1648.00  -9.10274473   2.04768985
1649.00  -9.11814710   2.05135944
1650.00  -9.13355791   2.05503330
1651.00  -9.14897715   2.05871144
1652.00  -9.16440483   2.06239386
1653.00  -9.17984094   2.06608055
1654.00  -9.19528548   2.06977153
1655.00  -9.21073845   2.07346680
1656.00  -9.22619985   2.07716635
1657.00  -9.24166967   2.08087019
1658.00  -9.25714792   2.08457832
1659.00  -9.27263460   2.08829075
1660.00  -9.28812969   2.09200747
1661.00  -9.30363321   2.09572849
1662.00  -9.31914514   2.09945381
1663.00  -9.33466549   2.10318343
1664.00  -9.35019426   2.10691736
1665.00  -9.36573144   2.11065559
1666.00  -9.38127704   2.11439813
1667.00  -9.39683104   2.11814499
1668.00  -9.41239345   2.12189615
1669.00  -9.42796427   2.12565163
1670.00  -9.44354350   2.12941143
1671.00  -9.45913113   2.13317555
1672.00  -9.47472717   2.13694399
1673.00  -9.49033160   2.14071675
1674.00  -9.50594444   2.14449384
1675.00  -9.52156567   2.14827525
1676.00  -9.53719530   2.15206100
1677.00  -9.55283332   2.15585108
1678.00  -9.56847974   2.15964549
1679.00  -9.58413455   2.16344425
1680.00  -9.59979775   2.16724734
1681.00  -9.61546934   2.17105477
1682.00  -9.63114932   2.17486654
1683.00  -9.64683768   2.17868266
1684.00  -9.66253442   2.18250313
1685.00  -9.67823955   2.18632794
1686.00  -9.69395306   2.19015711
1687.00  -9.70967494   2.19399063
1688.00  -9.72540521   2.19782851
1689.00  -9.74114385   2.20167075
1690.00  -9.75689086   2.20551734
1691.00  -9.77264625   2.20936830
1692.00  -9.78841000   2.21322363
1693.00  -9.80418213   2.21708332
1694.00  -9.81996263   2.22094738
1695.00  -9.83575149   2.22481581
1696.00  -9.85154871   2.22868861
1697.00  -9.86735430   2.23256579
1698.00  -9.88316825   2.23644734
1699.00  -9.89899056   2.24033328
1700.00  -9.91482123   2.24422360
1701.00  -9.93066026   2.24811830
1702.00  -9.94650764   2.25201739
1703.00  -9.96236337   2.25592086
1704.00  -9.97822745   2.25982873
1705.00  -9.99409989   2.26374099
1706.00 -10.00998067   2.26765764
1707.00 -10.02586981   2.27157869
1708.00 -10.04176728   2.27550414
1709.00 -10.05767310   2.27943399
1710.00 -10.07358727   2.28336824
1711.00 -10.08950977   2.28730690
1712.00 -10.10544061   2.29124996
1713.00 -10.12137979   2.29519743
1714.00 -10.13732731   2.29914932
1715.00 -10.15328315   2.30310562
1716.00 -10.16924734   2.30706633
1717.00 -10.18521985   2.31103147
1718.00 -10.20120069   2.31500102
1719.00 -10.21718986   2.31897500
1720.00 -10.23318736   2.32295340
1721.00 -10.24919318   2.32693622
1722.00 -10.26520732   2.33092348
1723.00 -10.28122978   2.33491516
1724.00 -10.29726057   2.33891128
1725.00 -10.31329967   2.34291183
1726.00 -10.32934709   2.34691682
1727.00 -10.34540282   2.35092625
1728.00 -10.36146687   2.35494012
1729.00 -10.37753922   2.35895844
1730.00 -10.39361989   2.36298120
1731.00 -10.40970887   2.36700840
1732.00 -10.42580615   2.37104006
1733.00 -10.44191173   2.37507617
1734.00 -10.45802562   2.37911673
1735.00 -10.47414782   2.38316175
1736.00 -10.49027831   2.38721123
1737.00 -10.50641710   2.39126516
1738.00 -10.52256419   2.39532356
1739.00 -10.53871957   2.39938642
1740.00 -10.55488324   2.40345375
1741.00 -10.57105521   2.40752555
1742.00 -10.58723547   2.41160182
1743.00 -10.60342402   2.41568257
1744.00 -10.61962085   2.41976778
1745.00 -10.63582597   2.42385748
1746.00 -10.65203937   2.42795165
1747.00 -10.66826106   2.43205031
1748.00 -10.68449103   2.43615345
1749.00 -10.70072927   2.44026107
1750.00 -10.71697579   2.44437318
1751.00 -10.73323059   2.44848978
1752.00 -10.74949366   2.45261088
1753.00 -10.76576501   2.45673646
1754.00 -10.78204462   2.46086655
1755.00 -10.79833250   2.46500113
1756.00 -10.81462866   2.46914021
1757.00 -10.83093307   2.47328379
1758.00 -10.84724575   2.47743188
1759.00 -10.86356670   2.48158448
1760.00 -10.87989590   2.48574158
1761.00 -10.89623336   2.48990319
1762.00 -10.91257908   2.49406932
1763.00 -10.92893306   2.49823996
1764.00 -10.94529529   2.50241512
1765.00 -10.96166578   2.50659480
1766.00 -10.97804451   2.51077900
1767.00 -10.99443149   2.51496772
1768.00 -11.01082673   2.51916096
1769.00 -11.02723020   2.52335874
1770.00 -11.04364193   2.52756104
1771.00 -11.06006189   2.53176788
1772.00 -11.07649010   2.53597925
1773.00 -11.09292654   2.54019515
1774.00 -11.10937122   2.54441559
1775.00 -11.12582414   2.54864057
1776.00 -11.14228530   2.55287010
1777.00 -11.15875468   2.55710417
1778.00 -11.17523230   2.56134278
1779.00 -11.19171815   2.56558594
1780.00 -11.20821222   2.56983366
1781.00 -11.22471452   2.57408592
1782.00 -11.24122505   2.57834274
1783.00 -11.25774379   2.58260412
1784.00 -11.27427076   2.58687005
1785.00 -11.29080595   2.59114055
1786.00 -11.30734936   2.59541560
1787.00 -11.32390098   2.59969523
1788.00 -11.34046082   2.60397942
1789.00 -11.35702887   2.60826818
1790.00 -11.37360513   2.61256150
1791.00 -11.39018960   2.61685941
1792.00 -11.40678228   2.62116188
1793.00 -11.42338316   2.62546894
1794.00 -11.43999225   2.62978057
1795.00 -11.45660955   2.63409679
1796.00 -11.47323504   2.63841759
1797.00 -11.48986873   2.64274297
1798.00 -11.50651062   2.64707294
1799.00 -11.52316071   2.65140750
1800.00 -11.53981899   2.65574666
1801.00 -11.55648547   2.66009040
1802.00 -11.57316013   2.66443875
1803.00 -11.58984299   2.66879169
1804.00 -11.60653403   2.67314923
1805.00 -11.62323326   2.67751137
1806.00 -11.63994067   2.68187811
1807.00 -11.65665627   2.68624947
1808.00 -11.67338005   2.69062543
1809.00 -11.69011200   2.69500600
1810.00 -11.70685214   2.69939118
1811.00 -11.72360045   2.70378098
1812.00 -11.74035694   2.70817539
1813.00 -11.75712159   2.71257442
1814.00 -11.77389442   2.71697807
1815.00 -11.79067542   2.72138635
1816.00 -11.80746459   2.72579925
1817.00 -11.82426192   2.73021677
1818.00 -11.84106742   2.73463893
1819.00 -11.85788108   2.73906571
1820.00 -11.87470290   2.74349713
1821.00 -11.89153288   2.74793318
1822.00 -11.90837101   2.75237387
1823.00 -11.92521731   2.75681920
1824.00 -11.94207175   2.76126917
1825.00 -11.95893435   2.76572378
1826.00 -11.97580510   2.77018304
1827.00 -11.99268400   2.77464694
1828.00 -12.00957105   2.77911550
1829.00 -12.02646625   2.78358870
1830.00 -12.04336958   2.78806656
1831.00 -12.06028106   2.79254907
1832.00 -12.07720068   2.79703624
1833.00 -12.09412844   2.80152807
1834.00 -12.11106434   2.80602456
1835.00 -12.12800837   2.81052571
1836.00 -12.14496054   2.81503153
1837.00 -12.16192084   2.81954202
1838.00 -12.17888927   2.82405718
1839.00 -12.19586582   2.82857700
1840.00 -12.21285051   2.83310150
1841.00 -12.22984332   2.83763068
1842.00 -12.24684426   2.84216454
1843.00 -12.26385331   2.84670307
1844.00 -12.28087049   2.85124628
1845.00 -12.29789579   2.85579418
1846.00 -12.31492920   2.86034677
1847.00 -12.33197073   2.86490404
1848.00 -12.34902037   2.86946600
1849.00 -12.36607812   2.87403266
1850.00 -12.38314398   2.87860401
1851.00 -12.40021796   2.88318005
1852.00 -12.41730004   2.88776079
1853.00 -12.43439022   2.89234623
1854.00 -12.45148851   2.89693638
1855.00 -12.46859490   2.90153122
1856.00 -12.48570938   2.90613078
1857.00 -12.50283197   2.91073504
1858.00 -12.51996266   2.91534401
1859.00 -12.53710143   2.91995769
1860.00 -12.55424830   2.92457609
1861.00 -12.57140327   2.92919920
1862.00 -12.58856632   2.93382703
1863.00 -12.60573746   2.93845958
1864.00 -12.62291669   2.94309686
1865.00 -12.64010400   2.94773885
1866.00 -12.65729939   2.95238558
1867.00 -12.67450287   2.95703703
1868.00 -12.69171442   2.96169321
1869.00 -12.70893406   2.96635412
1870.00 -12.72616176   2.97101977
1871.00 -12.74339755   2.97569016
1872.00 -12.76064140   2.98036528
1873.00 -12.77789333   2.98504514
1874.00 -12.79515332   2.98972974
1875.00 -12.81242139   2.99441909
1876.00 -12.82969751   2.99911319
1877.00 -12.84698171   3.00381203
1878.00 -12.86427396   3.00851562
1879.00 -12.88157428   3.01322397
1880.00 -12.89888265   3.01793707
1881.00 -12.91619908   3.02265492
1882.00 -12.93352357   3.02737754
1883.00 -12.95085611   3.03210491
1884.00 -12.96819670   3.03683705
1885.00 -12.98554534   3.04157395
1886.00 -13.00290203   3.04631561
1887.00 -13.02026677   3.05106205
1888.00 -13.03763955   3.05581325
1889.00 -13.05502037   3.06056923
1890.00 -13.07240924   3.06532998
1891.00 -13.08980615   3.07009551
1892.00 -13.10721109   3.07486581
1893.00 -13.12462407   3.07964090
1894.00 -13.14204509   3.08442077
1895.00 -13.15947414   3.08920542
1896.00 -13.17691122   3.09399486
1897.00 -13.19435633   3.09878908
1898.00 -13.21180946   3.10358810
1899.00 -13.22927063   3.10839191
1900.00 -13.24673981   3.11320051
1901.00 -13.26421702   3.11801391
1902.00 -13.28170225   3.12283210
1903.00 -13.29919550   3.12765510
1904.00 -13.31669677   3.13248290
1905.00 -13.33420605   3.13731550
1906.00 -13.35172335   3.14215291
1907.00 -13.36924865   3.14699512
1908.00 -13.38678197   3.15184215
1909.00 -13.40432330   3.15669398
1910.00 -13.42187263   3.16155064
1911.00 -13.43942997   3.16641210
1912.00 -13.45699531   3.17127839
1913.00 -13.47456866   3.17614949
1914.00 -13.49215000   3.18102542
1915.00 -13.50973934   3.18590617
1916.00 -13.52733668   3.19079175
1917.00 -13.54494201   3.19568215
1918.00 -13.56255534   3.20057738
1919.00 -13.58017666   3.20547745
1920.00 -13.59780596   3.21038235
1921.00 -13.61544326   3.21529208
1922.00 -13.63308854   3.22020665
1923.00 -13.65074180   3.22512606
1924.00 -13.66840305   3.23005032
1925.00 -13.68607227   3.23497941
1926.00 -13.70374948   3.23991336
1927.00 -13.72143466   3.24485214
1928.00 -13.73912782   3.24979578
1929.00 -13.75682895   3.25474427
1930.00 -13.77453806   3.25969761
1931.00 -13.79225513   3.26465581
1932.00 -13.80998017   3.26961887
1933.00 -13.82771318   3.27458678
1934.00 -13.84545416   3.27955956
1935.00 -13.86320309   3.28453720
1936.00 -13.88095999   3.28951970
1937.00 -13.89872485   3.29450707
1938.00 -13.91649767   3.29949931
1939.00 -13.93427844   3.30449642
1940.00 -13.95206716   3.30949840
1941.00 -13.96986384   3.31450526
1942.00 -13.98766847   3.31951700
1943.00 -14.00548105   3.32453361
1944.00 -14.02330158   3.32955510
1945.00 -14.04113005   3.33458148
1946.00 -14.05896647   3.33961274
1947.00 -14.07681082   3.34464889
1948.00 -14.09466312   3.34968992
1949.00 -14.11252336   3.35473585
1950.00 -14.13039153   3.35978667
1951.00 -14.14826764   3.36484238
1952.00 -14.16615168   3.36990299
1953.00 -14.18404365   3.37496850
1954.00 -14.20194356   3.38003891
1955.00 -14.21985139   3.38511422
1956.00 -14.23776714   3.39019443
1957.00 -14.25569082   3.39527955
1958.00 -14.27362243   3.40036958
1959.00 -14.29156195   3.40546452
1960.00 -14.30950939   3.41056437
1961.00 -14.32746475   3.41566913
1962.00 -14.34542803   3.42077881
1963.00 -14.36339922   3.42589340
1964.00 -14.38137832   3.43101292
1965.00 -14.39936533   3.43613736
1966.00 -14.41736025   3.44126672
1967.00 -14.43536308   3.44640100
1968.00 -14.45337381   3.45154022
1969.00 -14.47139245   3.45668436
1970.00 -14.48941898   3.46183343
1971.00 -14.50745342   3.46698744
1972.00 -14.52549575   3.47214638
1973.00 -14.54354598   3.47731026
1974.00 -14.56160410   3.48247908
1975.00 -14.57967012   3.48765283
1976.00 -14.59774403   3.49283153
1977.00 -14.61582582   3.49801518
1978.00 -14.63391550   3.50320377
1979.00 -14.65201307   3.50839731
1980.00 -14.67011852   3.51359580
1981.00 -14.68823185   3.51879925
1982.00 -14.70635307   3.52400764
1983.00 -14.72448216   3.52922100
1984.00 -14.74261913   3.53443931
1985.00 -14.76076397   3.53966258
1986.00 -14.77891668   3.54489081
1987.00 -14.79707727   3.55012401
1988.00 -14.81524572   3.55536217
1989.00 -14.83342205   3.56060530
1990.00 -14.85160623   3.56585340
1991.00 -14.86979829   3.57110648
1992.00 -14.88799820   3.57636452
1993.00 -14.90620597   3.58162754
1994.00 -14.92442161   3.58689554
1995.00 -14.94264510   3.59216852
1996.00 -14.96087644   3.59744647
1997.00 -14.97911564   3.60272941
1998.00 -14.99736269   3.60801734
1999.00 -15.01561759   3.61331025
2000.00 -15.03388033   3.61860815
