wavelength(nm)         real         imag
200.00   3.83973124   0.00115185
201.00   3.83912727   0.00116921
202.00   3.83852029   0.00118674
203.00   3.83791030   0.00120445
204.00   3.83729731   0.00122233
205.00   3.83668131   0.00124039
206.00   3.83606230   0.00125862
207.00   3.83544028   0.00127704
208.00   3.83481525   0.00129563
209.00   3.83418722   0.00131440
210.00   3.83355618   0.00133336
211.00   3.83292213   0.00135249
212.00   3.83228508   0.00137180
213.00   3.83164502   0.00139130
214.00   3.83100195   0.00141099
215.00   3.83035587   0.00143085
216.00   3.82970679   0.00145091
217.00   3.82905470   0.00147114
218.00   3.82839961   0.00149157
219.00   3.82774150   0.00151219
220.00   3.82708039   0.00153299
221.00   3.82641628   0.00155398
222.00   3.82574916   0.00157517
223.00   3.82507903   0.00159654
224.00   3.82440589   0.00161811
225.00   3.82372975   0.00163987
226.00   3.82305060   0.00166183
227.00   3.82236845   0.00168398
228.00   3.82168329   0.00170632
229.00   3.82099512   0.00172887
230.00   3.82030395   0.00175161
231.00   3.81960977   0.00177455
232.00   3.81891259   0.00179768
233.00   3.81821240   0.00182102
234.00   3.81750921   0.00184456
235.00   3.81680301   0.00186830
236.00   3.81609380   0.00189225
237.00   3.81538159   0.00191640
238.00   3.81466638   0.00194075
239.00   3.81394815   0.00196531
240.00   3.81322693   0.00199007
241.00   3.81250270   0.00201504
242.00   3.81177546   0.00204022
243.00   3.81104522   0.00206561
244.00   3.81031197   0.00209120
245.00   3.80957572   0.00211701
246.00   3.80883647   0.00214303
247.00   3.80809421   0.00216926
248.00   3.80734894   0.00219570
249.00   3.80660068   0.00222236
250.00   3.80584940   0.00224924
251.00   3.80509512   0.00227632
252.00   3.80433784   0.00230363
253.00   3.80357756   0.00233115
254.00   3.80281427   0.00235889
255.00   3.80204798   0.00238685
256.00   3.80127868   0.00241503
257.00   3.80050638   0.00244343
258.00   3.79973107   0.00247205
259.00   3.79895276   0.00250090
260.00   3.79817145   0.00252997
261.00   3.79738714   0.00255926
262.00   3.79659982   0.00258878
263.00   3.79580950   0.00261852
264.00   3.79501617   0.00264849
265.00   3.79421985   0.00267869
266.00   3.79342052   0.00270911
267.00   3.79261818   0.00273977
268.00   3.79181285   0.00277065
269.00   3.79100451   0.00280177
270.00   3.79019316   0.00283312
271.00   3.78937882   0.00286470
272.00   3.78856147   0.00289652
273.00   3.78774113   0.00292857
274.00   3.78691777   0.00296085
275.00   3.78609142   0.00299337
276.00   3.78526207   0.00302613
277.00   3.78442971   0.00305913
278.00   3.78359435   0.00309237
279.00   3.78275599   0.00312584
280.00   3.78191463   0.00315956
281.00   3.78107026   0.00319351
282.00   3.78022289   0.00322771
283.00   3.77937253   0.00326216
284.00   3.77851916   0.00329684
285.00   3.77766279   0.00333177
286.00   3.77680342   0.00336695
287.00   3.77594105   0.00340237
288.00   3.77507567   0.00343804
289.00   3.77420730   0.00347396
290.00   3.77333592   0.00351013
291.00   3.77246155   0.00354655
292.00   3.77158417   0.00358322
293.00   3.77070380   0.00362014
294.00   3.76982042   0.00365731
295.00   3.76893404   0.00369474
296.00   3.76804467   0.00373242
297.00   3.76715229   0.00377036
298.00   3.76625691   0.00380855
299.00   3.76535853   0.00384700
300.00   3.76445716   0.00388570
301.00   3.76355278   0.00392467
302.00   3.76264540   0.00396389
303.00   3.76173503   0.00400338
304.00   3.76082165   0.00404313
305.00   3.75990528   0.00408313
306.00   3.75898590   0.00412340
307.00   3.75806353   0.00416394
308.00   3.75713816   0.00420474
309.00   3.75620979   0.00424580
310.00   3.75527842   0.00428713
311.00   3.75434405   0.00432873
312.00   3.75340668   0.00437060
313.00   3.75246632   0.00441273
314.00   3.75152295   0.00445514
315.00   3.75057659   0.00449781
316.00   3.74962723   0.00454076
317.00   3.74867487   0.00458398
318.00   3.74771952   0.00462747
319.00   3.74676116   0.00467123
320.00   3.74579981   0.00471527
321.00   3.74483546   0.00475959
322.00   3.74386811   0.00480418
323.00   3.74289777   0.00484905
324.00   3.74192443   0.00489420
325.00   3.74094809   0.00493963
326.00   3.73996875   0.00498533
327.00   3.73898642   0.00503132
328.00   3.73800109   0.00507759
329.00   3.73701276   0.00512415
330.00   3.73602144   0.00517098
331.00   3.73502712   0.00521810
332.00   3.73402980   0.00526551
333.00   3.73302949   0.00531320
334.00   3.73202618   0.00536118
335.00   3.73101987   0.00540944
336.00   3.73001057   0.00545799
337.00   3.72899827   0.00550684
338.00   3.72798298   0.00555597
339.00   3.72696469   0.00560540
340.00   3.72594340   0.00565511
341.00   3.72491912   0.00570512
342.00   3.72389185   0.00575543
343.00   3.72286158   0.00580602
344.00   3.72182831   0.00585692
345.00   3.72079205   0.00590811
346.00   3.71975279   0.00595959
347.00   3.71871054   0.00601138
348.00   3.71766530   0.00606346
349.00   3.71661706   0.00611584
350.00   3.71556582   0.00616853
351.00   3.71451159   0.00622151
352.00   3.71345437   0.00627480
353.00   3.71239415   0.00632839
354.00   3.71133094   0.00638228
355.00   3.71026473   0.00643648
356.00   3.70919553   0.00649098
357.00   3.70812334   0.00654579
358.00   3.70704815   0.00660091
359.00   3.70596997   0.00665634
360.00   3.70488880   0.00671207
361.00   3.70380464   0.00676812
362.00   3.70271748   0.00682447
363.00   3.70162732   0.00688114
364.00   3.70053418   0.00693812
365.00   3.69943804   0.00699541
366.00   3.69833891   0.00705302
367.00   3.69723679   0.00711094
368.00   3.69613167   0.00716918
369.00   3.69502356   0.00722774
370.00   3.69391246   0.00728661
371.00   3.69279837   0.00734580
372.00   3.69168129   0.00740531
373.00   3.69056121   0.00746514
374.00   3.68943815   0.00752529
375.00   3.68831209   0.00758576
376.00   3.68718304   0.00764656
377.00   3.68605100   0.00770768
378.00   3.68491596   0.00776912
379.00   3.68377794   0.00783089
380.00   3.68263693   0.00789299
381.00   3.68149292   0.00795541
382.00   3.68034593   0.00801816
383.00   3.67919594   0.00808124
384.00   3.67804296   0.00814464
385.00   3.67688700   0.00820838
386.00   3.67572804   0.00827245
387.00   3.67456609   0.00833685
388.00   3.67340115   0.00840159
389.00   3.67223323   0.00846666
390.00   3.67106231   0.00853206
391.00   3.66988841   0.00859780
392.00   3.66871151   0.00866387
393.00   3.66753163   0.00873028
394.00   3.66634875   0.00879703
395.00   3.66516289   0.00886412
396.00   3.66397404   0.00893155
397.00   3.66278220   0.00899932
398.00   3.66158737   0.00906743
399.00   3.66038955   0.00913588
400.00   3.65918875   0.00920468
401.00   3.65798495   0.00927382
402.00   3.65677817   0.00934331
403.00   3.65556840   0.00941314
404.00   3.65435564   0.00948331
405.00   3.65313990   0.00955384
406.00   3.65192117   0.00962471
407.00   3.65069945   0.00969593
408.00   3.64947474   0.00976750
409.00   3.64824704   0.00983943
410.00   3.64701636   0.00991170
411.00   3.64578269   0.00998433
412.00   3.64454604   0.01005731
413.00   3.64330640   0.01013064
414.00   3.64206377   0.01020433
415.00   3.64081815   0.01027838
416.00   3.63956955   0.01035278
417.00   3.63831797   0.01042754
418.00   3.63706339   0.01050266
419.00   3.63580583   0.01057814
420.00   3.63454529   0.01065397
421.00   3.63328176   0.01073017
422.00   3.63201524   0.01080673
423.00   3.63074574   0.01088366
424.00   3.62947326   0.01096094
425.00   3.62819779   0.01103860
426.00   3.62691933   0.01111661
427.00   3.62563789   0.01119500
428.00   3.62435347   0.01127375
429.00   3.62306606   0.01135286
430.00   3.62177567   0.01143235
431.00   3.62048229   0.01151221
432.00   3.61918593   0.01159243
433.00   3.61788658   0.01167303
434.00   3.61658425   0.01175400
435.00   3.61527894   0.01183534
436.00   3.61397064   0.01191706
437.00   3.61265936   0.01199915
438.00   3.61134510   0.01208161
439.00   3.61002786   0.01216446
440.00   3.60870763   0.01224768
441.00   3.60738442   0.01233127
442.00   3.60605822   0.01241525
443.00   3.60472905   0.01249961
444.00   3.60339689   0.01258434
445.00   3.60206175   0.01266946
446.00   3.60072363   0.01275496
447.00   3.59938252   0.01284085
448.00   3.59803844   0.01292712
449.00   3.59669137   0.01301377
450.00   3.59534132   0.01310081
451.00   3.59398829   0.01318823
452.00   3.59263228   0.01327604
453.00   3.59127329   0.01336424
454.00   3.58991131   0.01345283
455.00   3.58854636   0.01354181
456.00   3.58717843   0.01363118
457.00   3.58580751   0.01372094
458.00   3.58443362   0.01381110
459.00   3.58305674   0.01390164
460.00   3.58167689   0.01399258
461.00   3.58029405   0.01408392
462.00   3.57890824   0.01417565
463.00   3.57751945   0.01426778
464.00   3.57612767   0.01436031
465.00   3.57473292   0.01445323
466.00   3.57333519   0.01454656
467.00   3.57193448   0.01464028
468.00   3.57053079   0.01473441
469.00   3.56912413   0.01482893
470.00   3.56771448   0.01492386
471.00   3.56630186   0.01501919
472.00   3.56488626   0.01511493
473.00   3.56346768   0.01521107
474.00   3.56204612   0.01530762
475.00   3.56062159   0.01540458
476.00   3.55919407   0.01550194
477.00   3.55776358   0.01559971
478.00   3.55633012   0.01569789
479.00   3.55489367   0.01579648
480.00   3.55345425   0.01589548
481.00   3.55201185   0.01599490
482.00   3.55056648   0.01609472
483.00   3.54911813   0.01619496
484.00   3.54766680   0.01629562
485.00   3.54621250   0.01639669
486.00   3.54475522   0.01649817
487.00   3.54329497   0.01660008
488.00   3.54183174   0.01670240
489.00   3.54036553   0.01680514
490.00   3.53889635   0.01690830
491.00   3.53742420   0.01701188
492.00   3.53594907   0.01711588
493.00   3.53447096   0.01722030
494.00   3.53298988   0.01732515
495.00   3.53150583   0.01743042
496.00   3.53001880   0.01753611
497.00   3.52852880   0.01764223
498.00   3.52703582   0.01774878
499.00   3.52553987   0.01785575
500.00   3.52404094   0.01796315
501.00   3.52253905   0.01807098
502.00   3.52103418   0.01817924
503.00   3.51952633   0.01828793
504.00   3.51801551   0.01839705
505.00   3.51650172   0.01850660
506.00   3.51498496   0.01861659
507.00   3.51346523   0.01872701
508.00   3.51194252   0.01883787
509.00   3.51041684   0.01894916
510.00   3.50888819   0.01906088
511.00   3.50735656   0.01917305
512.00   3.50582197   0.01928565
513.00   3.50428440   0.01939869
514.00   3.50274386   0.01951217
515.00   3.50120036   0.01962610
516.00   3.49965388   0.01974046
517.00   3.49810442   0.01985527
518.00   3.49655200   0.01997051
519.00   3.49499661   0.02008621
520.00   3.49343825   0.02020235
521.00   3.49187692   0.02031893
522.00   3.49031261   0.02043596
523.00   3.48874534   0.02055344
524.00   3.48717510   0.02067136
525.00   3.48560189   0.02078974
526.00   3.48402571   0.02090856
527.00   3.48244656   0.02102784
528.00   3.48086444   0.02114756
529.00   3.47927935   0.02126774
530.00   3.47769129   0.02138838
531.00   3.47610027   0.02150946
532.00   3.47450628   0.02163101
533.00   3.47290932   0.02175300
534.00   3.47130939   0.02187546
535.00   3.46970649   0.02199837
536.00   3.46810063   0.02212174
537.00   3.46649179   0.02224557
538.00   3.46487999   0.02236986
539.00   3.46326523   0.02249461
540.00   3.46164750   0.02261982
541.00   3.46002680   0.02274550
542.00   3.45840313   0.02287163
543.00   3.45677650   0.02299824
544.00   3.45514690   0.02312530
545.00   3.45351433   0.02325284
546.00   3.45187880   0.02338084
547.00   3.45024031   0.02350931
548.00   3.44859885   0.02363824
549.00   3.44695442   0.02376765
550.00   3.44530703   0.02389752
551.00   3.44365667   0.02402787
552.00   3.44200335   0.02415869
553.00   3.44034706   0.02428998
554.00   3.43868781   0.02442174
555.00   3.43702560   0.02455398
556.00   3.43536042   0.02468669
557.00   3.43369228   0.02481988
558.00   3.43202117   0.02495355
559.00   3.43034710   0.02508769
560.00   3.42867007   0.02522232
561.00   3.42699007   0.02535742
562.00   3.42530711   0.02549300
563.00   3.42362119   0.02562906
564.00   3.42193231   0.02576561
565.00   3.42024046   0.02590264
566.00   3.41854565   0.02604015
567.00   3.41684788   0.02617815
568.00   3.41514715   0.02631663
569.00   3.41344346   0.02645559
570.00   3.41173680   0.02659505
571.00   3.41002718   0.02673499
572.00   3.40831460   0.02687542
573.00   3.40659907   0.02701634
574.00   3.40488057   0.02715775
575.00   3.40315910   0.02729965
576.00   3.40143468   0.02744205
577.00   3.39970730   0.02758493
578.00   3.39797696   0.02772831
579.00   3.39624366   0.02787219
580.00   3.39450740   0.02801655
581.00   3.39276818   0.02816142
582.00   3.39102600   0.02830678
583.00   3.38928087   0.02845264
584.00   3.38753277   0.02859900
585.00   3.38578171   0.02874586
586.00   3.38402770   0.02889322
587.00   3.38227073   0.02904108
588.00   3.38051080   0.02918944
589.00   3.37874791   0.02933831
590.00   3.37698207   0.02948767
591.00   3.37521326   0.02963755
592.00   3.37344150   0.02978793
593.00   3.37166678   0.02993881
594.00   3.36988911   0.03009020
595.00   3.36810848   0.03024210
596.00   3.36632489   0.03039451
597.00   3.36453835   0.03054743
598.00   3.36274885   0.03070086
599.00   3.36095639   0.03085479
600.00   3.35916098   0.03100925
601.00   3.35736261   0.03116421
602.00   3.35556129   0.03131969
603.00   3.35375701   0.03147568
604.00   3.35194978   0.03163219
605.00   3.35013959   0.03178921
606.00   3.34832645   0.03194675
607.00   3.34651035   0.03210481
608.00   3.34469130   0.03226339
609.00   3.34286929   0.03242249
610.00   3.34104434   0.03258210
611.00   3.33921642   0.03274224
612.00   3.33738556   0.03290290
613.00   3.33555174   0.03306409
614.00   3.33371497   0.03322580
615.00   3.33187524   0.03338803
616.00   3.33003256   0.03355079
617.00   3.32818693   0.03371407
618.00   3.32633835   0.03387788
619.00   3.32448682   0.03404222
620.00   3.32263233   0.03420709
621.00   3.32077490   0.03437248
622.00   3.31891451   0.03453841
623.00   3.31705117   0.03470487
624.00   3.31518488   0.03487186
625.00   3.31331563   0.03503938
626.00   3.31144344   0.03520744
627.00   3.30956830   0.03537603
628.00   3.30769021   0.03554516
629.00   3.30580916   0.03571483
630.00   3.30392517   0.03588503
631.00   3.30203823   0.03605576
632.00   3.30014834   0.03622704
633.00   3.29825550   0.03639886
634.00   3.29635971   0.03657122
635.00   3.29446097   0.03674412
636.00   3.29255928   0.03691756
637.00   3.29065464   0.03709154
638.00   3.28874706   0.03726607
639.00   3.28683653   0.03744114
640.00   3.28492305   0.03761676
641.00   3.28300662   0.03779292
642.00   3.28108725   0.03796963
643.00   3.27916493   0.03814689
644.00   3.27723966   0.03832470
645.00   3.27531145   0.03850306
646.00   3.27338028   0.03868196
647.00   3.27144618   0.03886142
648.00   3.26950912   0.03904143
649.00   3.26756912   0.03922200
650.00   3.26562618   0.03940311
651.00   3.26368029   0.03958479
652.00   3.26173145   0.03976701
653.00   3.25977967   0.03994980
654.00   3.25782495   0.04013314
655.00   3.25586728   0.04031704
656.00   3.25390666   0.04050149
657.00   3.25194310   0.04068651
658.00   3.24997660   0.04087209
659.00   3.24800716   0.04105823
660.00   3.24603477   0.04124493
661.00   3.24405943   0.04143219
662.00   3.24208116   0.04162002
663.00   3.24009994   0.04180841
664.00   3.23811578   0.04199737
665.00   3.23612867   0.04218689
666.00   3.23413863   0.04237698
667.00   3.23214564   0.04256764
668.00   3.23014971   0.04275886
669.00   3.22815084   0.04295066
670.00   3.22614902   0.04314303
671.00   3.22414427   0.04333596
672.00   3.22213657   0.04352947
673.00   3.22012594   0.04372356
674.00   3.21811236   0.04391821
675.00   3.21609584   0.04411344
676.00   3.21407639   0.04430925
677.00   3.21205399   0.04450563
678.00   3.21002865   0.04470259
679.00   3.20800038   0.04490013
680.00   3.20596916   0.04509824
681.00   3.20393501   0.04529694
682.00   3.20189792   0.04549621
683.00   3.19985789   0.04569607
684.00   3.19781492   0.04589651
685.00   3.19576901   0.04609753
686.00   3.19372016   0.04629913
687.00   3.19166838   0.04650132
688.00   3.18961366   0.04670410
689.00   3.18755600   0.04690746
690.00   3.18549541   0.04711140
691.00   3.18343188   0.04731594
692.00   3.18136541   0.04752106
693.00   3.17929601   0.04772678
694.00   3.17722367   0.04793308
695.00   3.17514839   0.04813997
696.00   3.17307018   0.04834746
697.00   3.17098903   0.04855554
698.00   3.16890495   0.04876421
699.00   3.16681793   0.04897348
700.00   3.16472798   0.04918334
701.00   3.16263509   0.04939380
702.00   3.16053927   0.04960485
703.00   3.15844052   0.04981650
704.00   3.15633883   0.05002876
705.00   3.15423421   0.05024161
706.00   3.15212665   0.05045506
707.00   3.15001616   0.05066911
708.00   3.14790274   0.05088376
709.00   3.14578639   0.05109902
710.00   3.14366710   0.05131487
711.00   3.14154488   0.05153134
712.00   3.13941973   0.05174841
713.00   3.13729165   0.05196608
714.00   3.13516063   0.05218436
715.00   3.13302669   0.05240325
716.00   3.13088981   0.05262275
717.00   3.12875000   0.05284285
718.00   3.12660726   0.05306357
719.00   3.12446160   0.05328490
720.00   3.12231300   0.05350684
721.00   3.12016147   0.05372939
722.00   3.11800701   0.05395255
723.00   3.11584962   0.05417633
724.00   3.11368931   0.05440072
725.00   3.11152606   0.05462573
726.00   3.10935988   0.05485136
727.00   3.10719078   0.05507760
728.00   3.10501875   0.05530447
729.00   3.10284379   0.05553195
730.00   3.10066590   0.05576005
731.00   3.09848509   0.05598877
732.00   3.09630135   0.05621811
733.00   3.09411468   0.05644808
734.00   3.09192508   0.05667867
735.00   3.08973256   0.05690988
736.00   3.08753711   0.05714172
737.00   3.08533873   0.05737418
738.00   3.08313743   0.05760727
739.00   3.08093320   0.05784099
740.00   3.07872605   0.05807533
741.00   3.07651597   0.05831031
742.00   3.07430297   0.05854591
743.00   3.07208704   0.05878214
744.00   3.06986819   0.05901901
745.00   3.06764641   0.05925651
746.00   3.06542171   0.05949464
747.00   3.06319409   0.05973341
748.00   3.06096354   0.05997281
749.00   3.05873007   0.06021284
750.00   3.05649368   0.06045351
751.00   3.05425436   0.06069482
752.00   3.05201212   0.06093677
753.00   3.04976696   0.06117935
754.00   3.04751887   0.06142258
755.00   3.04526787   0.06166645
756.00   3.04301394   0.06191095
757.00   3.04075709   0.06215610
758.00   3.03849732   0.06240189
759.00   3.03623463   0.06264833
760.00   3.03396902   0.06289541
761.00   3.03170049   0.06314314
762.00   3.02942904   0.06339151
763.00   3.02715467   0.06364053
764.00   3.02487737   0.06389019
765.00   3.02259716   0.06414051
766.00   3.02031403   0.06439147
767.00   3.01802799   0.06464309
768.00   3.01573902   0.06489536
769.00   3.01344713   0.06514827
770.00   3.01115233   0.06540184
771.00   3.00885461   0.06565607
772.00   3.00655397   0.06591095
773.00   3.00425041   0.06616648
774.00   3.00194393   0.06642267
775.00   2.99963454   0.06667952
776.00   2.99732224   0.06693702
777.00   2.99500701   0.06719519
778.00   2.99268887   0.06745401
779.00   2.99036781   0.06771349
780.00   2.98804384   0.06797364
781.00   2.98571695   0.06823444
782.00   2.98338715   0.06849591
783.00   2.98105443   0.06875804
784.00   2.97871880   0.06902083
785.00   2.97638025   0.06928429
786.00   2.97403879   0.06954842
787.00   2.97169442   0.06981321
788.00   2.96934713   0.07007867
789.00   2.96699693   0.07034480
790.00   2.96464381   0.07061160
791.00   2.96228779   0.07087907
792.00   2.95992884   0.07114720
793.00   2.95756699   0.07141601
794.00   2.95520223   0.07168550
795.00   2.95283455   0.07195565
796.00   2.95046396   0.07222648
797.00   2.94809046   0.07249798
798.00   2.94571405   0.07277016
799.00   2.94333473   0.07304302
800.00   2.94095249   0.07331655
801.00   2.93856735   0.07359076
802.00   2.93617930   0.07386565
803.00   2.93378833   0.07414122
804.00   2.93139446   0.07441748
805.00   2.92899768   0.07469441
806.00   2.92659799   0.07497202
807.00   2.92419539   0.07525032
808.00   2.92178988   0.07552930
809.00   2.91938146   0.07580896
810.00   2.91697014   0.07608931
811.00   2.91455591   0.07637035
812.00   2.91213876   0.07665207
813.00   2.90971872   0.07693448
814.00   2.90729576   0.07721758
815.00   2.90486990   0.07750137
816.00   2.90244113   0.07778585
817.00   2.90000946   0.07807103
818.00   2.89757488   0.07835689
819.00   2.89513740   0.07864344
820.00   2.89269700   0.07893069
821.00   2.89025371   0.07921864
822.00   2.88780751   0.07950727
823.00   2.88535840   0.07979661
824.00   2.88290639   0.08008664
825.00   2.88045148   0.08037737
826.00   2.87799366   0.08066880
827.00   2.87553294   0.08096092
828.00   2.87306931   0.08125375
829.00   2.87060279   0.08154728
830.00   2.86813335   0.08184150
831.00   2.86566102   0.08213643
832.00   2.86318579   0.08243207
833.00   2.86070765   0.08272841
834.00   2.85822661   0.08302545
835.00   2.85574267   0.08332320
836.00   2.85325583   0.08362166
837.00   2.85076608   0.08392082
838.00   2.84827344   0.08422069
839.00   2.84577790   0.08452127
840.00   2.84327945   0.08482256
841.00   2.84077811   0.08512456
842.00   2.83827386   0.08542727
843.00   2.83576672   0.08573069
844.00   2.83325668   0.08603483
845.00   2.83074374   0.08633968
846.00   2.82822790   0.08664525
847.00   2.82570916   0.08695153
848.00   2.82318753   0.08725852
849.00   2.82066300   0.08756624
850.00   2.81813556   0.08787467
851.00   2.81560524   0.08818382
852.00   2.81307201   0.08849369
853.00   2.81053589   0.08880428
854.00   2.80799687   0.08911559
855.00   2.80545496   0.08942762
856.00   2.80291015   0.08974038
857.00   2.80036245   0.09005386
858.00   2.79781185   0.09036806
859.00   2.79525835   0.09068299
860.00   2.79270196   0.09099864
861.00   2.79014268   0.09131502
862.00   2.78758050   0.09163213
863.00   2.78501543   0.09194997
864.00   2.78244746   0.09226854
865.00   2.77987660   0.09258783
866.00   2.77730285   0.09290786
867.00   2.77472621   0.09322862
868.00   2.77214667   0.09355011
869.00   2.76956424   0.09387233
870.00   2.76697892   0.09419529
871.00   2.76439071   0.09451898
872.00   2.76179960   0.09484341
873.00   2.75920561   0.09516857
874.00   2.75660872   0.09549447
875.00   2.75400894   0.09582111
876.00   2.75140627   0.09614849
877.00   2.74880072   0.09647661
878.00   2.74619227   0.09680547
879.00   2.74358093   0.09713507
880.00   2.74096671   0.09746541
881.00   2.73834959   0.09779650
882.00   2.73572959   0.09812832
883.00   2.73310670   0.09846090
884.00   2.73048092   0.09879421
885.00   2.72785225   0.09912828
886.00   2.72522070   0.09946309
887.00   2.72258626   0.09979865
888.00   2.71994893   0.10013495
889.00   2.71730871   0.10047201
890.00   2.71466561   0.10080982
891.00   2.71201963   0.10114837
892.00   2.70937075   0.10148768
893.00   2.70671899   0.10182774
894.00   2.70406435   0.10216856
895.00   2.70140682   0.10251013
896.00   2.69874641   0.10285245
897.00   2.69608311   0.10319553
898.00   2.69341693   0.10353937
899.00   2.69074786   0.10388396
900.00   2.68807591   0.10422931
901.00   2.68540108   0.10457542
902.00   2.68272336   0.10492229
903.00   2.68004277   0.10526992
904.00   2.67735929   0.10561831
905.00   2.67467292   0.10596746
906.00   2.67198368   0.10631738
907.00   2.66929155   0.10666806
908.00   2.66659655   0.10701951
909.00   2.66389866   0.10737172
910.00   2.66119789   0.10772469
911.00   2.65849424   0.10807844
912.00   2.65578772   0.10843295
913.00   2.65307831   0.10878823
914.00   2.65036602   0.10914427
915.00   2.64765085   0.10950109
916.00   2.64493281   0.10985868
917.00   2.64221188   0.11021704
918.00   2.63948808   0.11057618
919.00   2.63676140   0.11093608
920.00   2.63403184   0.11129677
921.00   2.63129941   0.11165822
922.00   2.62856409   0.11202045
923.00   2.62582590   0.11238346
924.00   2.62308484   0.11274725
925.00   2.62034090   0.11311181
926.00   2.61759408   0.11347715
927.00   2.61484438   0.11384328
928.00   2.61209181   0.11421018
929.00   2.60933637   0.11457786
930.00   2.60657805   0.11494633
931.00   2.60381686   0.11531558
932.00   2.60105279   0.11568561
933.00   2.59828585   0.11605643
934.00   2.59551603   0.11642803
935.00   2.59274334   0.11680042
936.00   2.58996778   0.11717360
937.00   2.58718935   0.11754756
938.00   2.58440804   0.11792231
939.00   2.58162386   0.11829785
940.00   2.57883681   0.11867418
941.00   2.57604689   0.11905131
942.00   2.57325410   0.11942922
943.00   2.57045843   0.11980792
944.00   2.56765990   0.12018742
945.00   2.56485849   0.12056772
946.00   2.56205422   0.12094881
947.00   2.55924707   0.12133069
948.00   2.55643706   0.12171337
949.00   2.55362418   0.12209685
950.00   2.55080842   0.12248112
951.00   2.54798980   0.12286620
952.00   2.54516832   0.12325207
953.00   2.54234396   0.12363875
954.00   2.53951673   0.12402622
955.00   2.53668664   0.12441450
956.00   2.53385368   0.12480358
957.00   2.53101786   0.12519346
958.00   2.52817917   0.12558415
959.00   2.52533761   0.12597565
960.00   2.52249319   0.12636794
961.00   2.51964590   0.12676105
962.00   2.51679574   0.12715496
963.00   2.51394272   0.12754969
964.00   2.51108684   0.12794522
965.00   2.50822809   0.12834156
966.00   2.50536648   0.12873871
967.00   2.50250201   0.12913668
968.00   2.49963467   0.12953545
969.00   2.49676447   0.12993504
970.00   2.49389140   0.13033544
971.00   2.49101547   0.13073666
972.00   2.48813669   0.13113869
973.00   2.48525504   0.13154154
974.00   2.48237052   0.13194521
975.00   2.47948315   0.13234969
976.00   2.47659291   0.13275500
977.00   2.47369982   0.13316112
978.00   2.47080386   0.13356806
979.00   2.46790505   0.13397582
980.00   2.46500337   0.13438441
981.00   2.46209884   0.13479382
982.00   2.45919145   0.13520405
983.00   2.45628120   0.13561511
984.00   2.45336809   0.13602699
985.00   2.45045212   0.13643969
986.00   2.44753329   0.13685322
987.00   2.44461161   0.13726759
988.00   2.44168707   0.13768277
989.00   2.43875967   0.13809879
990.00   2.43582941   0.13851564
991.00   2.43289630   0.13893332
992.00   2.42996034   0.13935182
993.00   2.42702152   0.13977117
994.00   2.42407984   0.14019134
995.00   2.42113531   0.14061235
996.00   2.41818792   0.14103419
997.00   2.41523768   0.14145687
998.00   2.41228458   0.14188038
999.00   2.40932863   0.14230473
1000.00   2.40636983   0.14272992
1001.00   2.40340818   0.14315594
1002.00   2.40044367   0.14358281
1003.00   2.39747631   0.14401051
1004.00   2.39450610   0.14443906
1005.00   2.39153303   0.14486845
1006.00   2.38855711   0.14529868
1007.00   2.38557835   0.14572975
1008.00   2.38259673   0.14616167
1009.00   2.37961226   0.14659443
1010.00   2.37662494   0.14702803
1011.00   2.37363477   0.14746249
1012.00   2.37064175   0.14789779
1013.00   2.36764589   0.14833393
1014.00   2.36464717   0.14877093
1015.00   2.36164561   0.14920878
1016.00   2.35864119   0.14964747
1017.00   2.35563393   0.15008702
1018.00   2.35262382   0.15052742
1019.00   2.34961086   0.15096867
1020.00   2.34659506   0.15141078
1021.00   2.34357641   0.15185374
1022.00   2.34055491   0.15229755
1023.00   2.33753057   0.15274222
1024.00   2.33450338   0.15318775
1025.00   2.33147335   0.15363413
1026.00   2.32844047   0.15408137
1027.00   2.32540475   0.15452947
1028.00   2.32236618   0.15497843
1029.00   2.31932476   0.15542825
1030.00   2.31628051   0.15587893
1031.00   2.31323341   0.15633047
1032.00   2.31018347   0.15678288
1033.00   2.30713068   0.15723615
1034.00   2.30407505   0.15769028
1035.00   2.30101658   0.15814528
1036.00   2.29795527   0.15860115
1037.00   2.29489112   0.15905788
1038.00   2.29182412   0.15951548
1039.00   2.28875428   0.15997395
1040.00   2.28568161   0.16043328
1041.00   2.28260609   0.16089349
1042.00   2.27952773   0.16135456
1043.00   2.27644654   0.16181651
1044.00   2.27336250   0.16227933
1045.00   2.27027563   0.16274303
1046.00   2.26718592   0.16320759
1047.00   2.26409337   0.16367303
1048.00   2.26099798   0.16413935
1049.00   2.25789975   0.16460654
1050.00   2.25479869   0.16507461
1051.00   2.25169478   0.16554356
1052.00   2.24858805   0.16601338
1053.00   2.24547847   0.16648409
1054.00   2.24236606   0.16695567
1055.00   2.23925082   0.16742814
1056.00   2.23613274   0.16790148
1057.00   2.23301182   0.16837571
1058.00   2.22988807   0.16885082
1059.00   2.22676149   0.16932682
1060.00   2.22363207   0.16980370
1061.00   2.22049982   0.17028146
1062.00   2.21736473   0.17076011
1063.00   2.21422681   0.17123965
1064.00   2.21108606   0.17172008
1065.00   2.20794248   0.17220139
1066.00   2.20479606   0.17268360
1067.00   2.20164682   0.17316669
1068.00   2.19849474   0.17365068
1069.00   2.19533983   0.17413555
1070.00   2.19218209   0.17462132
1071.00   2.18902152   0.17510799
1072.00   2.18585812   0.17559554
1073.00   2.18269189   0.17608399
1074.00   2.17952283   0.17657334
1075.00   2.17635094   0.17706358
1076.00   2.17317623   0.17755472
1077.00   2.16999868   0.17804676
1078.00   2.16681831   0.17853969
1079.00   2.16363511   0.17903353
1080.00   2.16044908   0.17952827
1081.00   2.15726023   0.18002390
1082.00   2.15406854   0.18052044
1083.00   2.15087404   0.18101788
1084.00   2.14767670   0.18151622
1085.00   2.14447655   0.18201547
1086.00   2.14127356   0.18251563
1087.00   2.13806775   0.18301668
1088.00   2.13485912   0.18351865
1089.00   2.13164766   0.18402152
1090.00   2.12843338   0.18452530
1091.00   2.12521627   0.18502999
1092.00   2.12199635   0.18553559
1093.00   2.11877360   0.18604209
1094.00   2.11554802   0.18654951
1095.00   2.11231963   0.18705784
1096.00   2.10908841   0.18756709
1097.00   2.10585437   0.18807724
1098.00   2.10261751   0.18858832
1099.00   2.09937783   0.18910030
1100.00   2.09613533   0.18961320
1101.00   2.09289001   0.19012702
1102.00   2.08964186   0.19064175
1103.00   2.08639090   0.19115741
1104.00   2.08313712   0.19167398
1105.00   2.07988053   0.19219147
1106.00   2.07662111   0.19270988
1107.00   2.07335887   0.19322921
1108.00   2.07009382   0.19374947
1109.00   2.06682595   0.19427064
1110.00   2.06355527   0.19479274
1111.00   2.06028176   0.19531577
1112.00   2.05700544   0.19583972
1113.00   2.05372631   0.19636459
1114.00   2.05044435   0.19689039
1115.00   2.04715959   0.19741712
1116.00   2.04387201   0.19794478
1117.00   2.04058161   0.19847336
1118.00   2.03728840   0.19900288
1119.00   2.03399238   0.19953332
1120.00   2.03069354   0.20006470
1121.00   2.02739189   0.20059701
1122.00   2.02408742   0.20113025
1123.00   2.02078015   0.20166442
1124.00   2.01747006   0.20219953
1125.00   2.01415716   0.20273557
1126.00   2.01084145   0.20327255
1127.00   2.00752293   0.20381046
1128.00   2.00420159   0.20434932
1129.00   2.00087745   0.20488911
1130.00   1.99755050   0.20542983
1131.00   1.99422073   0.20597150
1132.00   1.99088816   0.20651411
1133.00   1.98755278   0.20705766
1134.00   1.98421459   0.20760215
1135.00   1.98087359   0.20814759
1136.00   1.97752978   0.20869396
1137.00   1.97418317   0.20924128
1138.00   1.97083375   0.20978955
1139.00   1.96748152   0.21033876
1140.00   1.96412649   0.21088892
1141.00   1.96076865   0.21144003
1142.00   1.95740800   0.21199208
1143.00   1.95404455   0.21254508
1144.00   1.95067829   0.21309903
1145.00   1.94730923   0.21365393
1146.00   1.94393737   0.21420979
1147.00   1.94056270   0.21476659
1148.00   1.93718522   0.21532435
1149.00   1.93380495   0.21588306
1150.00   1.93042187   0.21644272
1151.00   1.92703599   0.21700334
1152.00   1.92364730   0.21756492
1153.00   1.92025582   0.21812745
1154.00   1.91686153   0.21869094
1155.00   1.91346444   0.21925538
1156.00   1.91006455   0.21982079
1157.00   1.90666186   0.22038715
1158.00   1.90325637   0.22095447
1159.00   1.89984808   0.22152276
1160.00   1.89643699   0.22209201
1161.00   1.89302310   0.22266222
1162.00   1.88960642   0.22323339
1163.00   1.88618693   0.22380552
1164.00   1.88276465   0.22437863
1165.00   1.87933957   0.22495269
1166.00   1.87591169   0.22552773
1167.00   1.87248102   0.22610373
1168.00   1.86904755   0.22668069
1169.00   1.86561128   0.22725863
1170.00   1.86217222   0.22783754
1171.00   1.85873036   0.22841741
1172.00   1.85528571   0.22899826
1173.00   1.85183826   0.22958008
1174.00   1.84838802   0.23016287
1175.00   1.84493499   0.23074663
1176.00   1.84147916   0.23133137
1177.00   1.83802054   0.23191708
1178.00   1.83455912   0.23250377
1179.00   1.83109491   0.23309143
1180.00   1.82762791   0.23368007
1181.00   1.82415812   0.23426969
1182.00   1.82068554   0.23486029
1183.00   1.81721017   0.23545186
1184.00   1.81373200   0.23604442
1185.00   1.81025105   0.23663795
1186.00   1.80676730   0.23723247
1187.00   1.80328077   0.23782797
1188.00   1.79979145   0.23842445
1189.00   1.79629934   0.23902192
1190.00   1.79280444   0.23962037
1191.00   1.78930675   0.24021981
1192.00   1.78580627   0.24082023
1193.00   1.78230301   0.24142164
1194.00   1.77879696   0.24202404
1195.00   1.77528812   0.24262742
1196.00   1.77177650   0.24323180
1197.00   1.76826209   0.24383716
1198.00   1.76474490   0.24444351
1199.00   1.76122492   0.24505086
1200.00   1.75770216   0.24565920
1201.00   1.75417661   0.24626853
1202.00   1.75064828   0.24687885
1203.00   1.74711716   0.24749017
1204.00   1.74358326   0.24810249
1205.00   1.74004658   0.24871579
1206.00   1.73650712   0.24933010
1207.00   1.73296487   0.24994540
1208.00   1.72941984   0.25056171
1209.00   1.72587203   0.25117901
1210.00   1.72232144   0.25179731
1211.00   1.71876807   0.25241661
1212.00   1.71521192   0.25303691
1213.00   1.71165299   0.25365821
1214.00   1.70809128   0.25428052
1215.00   1.70452679   0.25490383
1216.00   1.70095952   0.25552814
1217.00   1.69738948   0.25615346
1218.00   1.69381665   0.25677978
1219.00   1.69024105   0.25740711
1220.00   1.68666267   0.25803545
1221.00   1.68308151   0.25866479
1222.00   1.67949758   0.25929515
1223.00   1.67591087   0.25992651
1224.00   1.67232139   0.26055888
1225.00   1.66872913   0.26119227
1226.00   1.66513409   0.26182667
1227.00   1.66153628   0.26246207
1228.00   1.65793570   0.26309850
1229.00   1.65433234   0.26373593
1230.00   1.65072621   0.26437438
1231.00   1.64711731   0.26501385
1232.00   1.64350563   0.26565433
1233.00   1.63989118   0.26629583
1234.00   1.63627396   0.26693834
1235.00   1.63265397   0.26758188
1236.00   1.62903121   0.26822643
1237.00   1.62540567   0.26887200
1238.00   1.62177737   0.26951860
1239.00   1.61814629   0.27016621
1240.00   1.61451245   0.27081485
1241.00   1.61087583   0.27146451
1242.00   1.60723645   0.27211520
1243.00   1.60359430   0.27276691
1244.00   1.59994938   0.27341964
1245.00   1.59630169   0.27407340
1246.00   1.59265124   0.27472819
1247.00   1.58899802   0.27538400
1248.00   1.58534203   0.27604084
1249.00   1.58168327   0.27669871
1250.00   1.57802175   0.27735761
1251.00   1.57435747   0.27801755
1252.00   1.57069042   0.27867851
1253.00   1.56702060   0.27934050
1254.00   1.56334802   0.28000353
1255.00   1.55967268   0.28066759
1256.00   1.55599457   0.28133268
1257.00   1.55231370   0.28199881
1258.00   1.54863007   0.28266597
1259.00   1.54494368   0.28333418
1260.00   1.54125452   0.28400341
1261.00   1.53756260   0.28467369
1262.00   1.53386792   0.28534500
1263.00   1.53017048   0.28601736
1264.00   1.52647028   0.28669075
1265.00   1.52276732   0.28736519
1266.00   1.51906160   0.28804066
1267.00   1.51535312   0.28871718
1268.00   1.51164188   0.28939474
1269.00   1.50792788   0.29007335
1270.00   1.50421113   0.29075300
1271.00   1.50049161   0.29143369
1272.00   1.49676934   0.29211543
1273.00   1.49304432   0.29279822
1274.00   1.48931653   0.29348206
1275.00   1.48558599   0.29416694
1276.00   1.48185270   0.29485287
1277.00   1.47811665   0.29553985
1278.00   1.47437784   0.29622789
1279.00   1.47063628   0.29691697
1280.00   1.46689196   0.29760711
1281.00   1.46314490   0.29829829
1282.00   1.45939507   0.29899054
1283.00   1.45564250   0.29968383
1284.00   1.45188717   0.30037818
1285.00   1.44812909   0.30107359
1286.00   1.44436826   0.30177005
1287.00   1.44060468   0.30246757
1288.00   1.43683834   0.30316615
1289.00   1.43306926   0.30386579
1290.00   1.42929742   0.30456649
1291.00   1.42552284   0.30526824
1292.00   1.42174551   0.30597106
1293.00   1.41796542   0.30667494
1294.00   1.41418259   0.30737988
1295.00   1.41039701   0.30808588
1296.00   1.40660868   0.30879295
1297.00   1.40281761   0.30950108
1298.00   1.39902379   0.31021028
1299.00   1.39522722   0.31092055
1300.00   1.39142790   0.31163188
1301.00   1.38762584   0.31234427
1302.00   1.38382103   0.31305774
1303.00   1.38001348   0.31377228
1304.00   1.37620319   0.31448788
1305.00   1.37239014   0.31520456
1306.00   1.36857436   0.31592230
1307.00   1.36475583   0.31664112
1308.00   1.36093456   0.31736101
1309.00   1.35711055   0.31808198
1310.00   1.35328379   0.31880401
1311.00   1.34945429   0.31952713
1312.00   1.34562205   0.32025132
1313.00   1.34178707   0.32097658
1314.00   1.33794935   0.32170293
1315.00   1.33410889   0.32243035
1316.00   1.33026569   0.32315884
1317.00   1.32641975   0.32388842
1318.00   1.32257107   0.32461908
1319.00   1.31871965   0.32535082
1320.00   1.31486549   0.32608364
1321.00   1.31100860   0.32681754
1322.00   1.30714896   0.32755253
1323.00   1.30328659   0.32828860
1324.00   1.29942149   0.32902575
1325.00   1.29555365   0.32976399
1326.00   1.29168307   0.33050331
1327.00   1.28780975   0.33124373
1328.00   1.28393371   0.33198522
1329.00   1.28005492   0.33272781
1330.00   1.27617340   0.33347149
1331.00   1.27228915   0.33421625
1332.00   1.26840217   0.33496211
1333.00   1.26451245   0.33570905
1334.00   1.26062000   0.33645709
1335.00   1.25672482   0.33720622
1336.00   1.25282690   0.33795644
1337.00   1.24892626   0.33870776
1338.00   1.24502288   0.33946017
1339.00   1.24111677   0.34021368
1340.00   1.23720794   0.34096829
1341.00   1.23329637   0.34172399
1342.00   1.22938207   0.34248078
1343.00   1.22546505   0.34323868
1344.00   1.22154529   0.34399768
1345.00   1.21762281   0.34475777
1346.00   1.21369760   0.34551897
1347.00   1.20976966   0.34628127
1348.00   1.20583900   0.34704466
1349.00   1.20190561   0.34780917
1350.00   1.19796949   0.34857477
1351.00   1.19403065   0.34934148
1352.00   1.19008908   0.35010929
1353.00   1.18614479   0.35087821
1354.00   1.18219777   0.35164824
1355.00   1.17824803   0.35241937
1356.00   1.17429556   0.35319161
1357.00   1.17034038   0.35396496
1358.00   1.16638247   0.35473942
1359.00   1.16242183   0.35551499
1360.00   1.15845848   0.35629167
1361.00   1.15449240   0.35706946
1362.00   1.15052360   0.35784836
1363.00   1.14655208   0.35862838
1364.00   1.14257785   0.35940951
1365.00   1.13860089   0.36019175
1366.00   1.13462121   0.36097511
1367.00   1.13063881   0.36175959
1368.00   1.12665370   0.36254518
1369.00   1.12266586   0.36333189
1370.00   1.11867531   0.36411971
1371.00   1.11468204   0.36490866
1372.00   1.11068605   0.36569872
1373.00   1.10668735   0.36648991
1374.00   1.10268593   0.36728221
1375.00   1.09868180   0.36807564
1376.00   1.09467495   0.36887019
1377.00   1.09066538   0.36966586
1378.00   1.08665310   0.37046266
1379.00   1.08263811   0.37126058
1380.00   1.07862040   0.37205962
1381.00   1.07459998   0.37285979
1382.00   1.07057685   0.37366109
1383.00   1.06655100   0.37446352
1384.00   1.06252244   0.37526707
1385.00   1.05849117   0.37607175
1386.00   1.05445719   0.37687757
1387.00   1.05042050   0.37768451
1388.00   1.04638110   0.37849258
1389.00   1.04233899   0.37930179
1390.00   1.03829417   0.38011212
1391.00   1.03424664   0.38092359
1392.00   1.03019640   0.38173620
1393.00   1.02614345   0.38254994
1394.00   1.02208780   0.38336481
1395.00   1.01802944   0.38418082
1396.00   1.01396837   0.38499797
1397.00   1.00990459   0.38581625
1398.00   1.00583811   0.38663568
1399.00   1.00176892   0.38745624
1400.00   0.99769703   0.38827794
1401.00   0.99362243   0.38910078
1402.00   0.98954513   0.38992476
1403.00   0.98546513   0.39074989
1404.00   0.98138242   0.39157615
1405.00   0.97729701   0.39240356
1406.00   0.97320889   0.39323212
1407.00   0.96911807   0.39406182
1408.00   0.96502455   0.39489266
1409.00   0.96092833   0.39572465
1410.00   0.95682941   0.39655779
1411.00   0.95272779   0.39739207
1412.00   0.94862347   0.39822750
1413.00   0.94451644   0.39906408
1414.00   0.94040672   0.39990182
1415.00   0.93629430   0.40074070
1416.00   0.93217918   0.40158073
1417.00   0.92806137   0.40242191
1418.00   0.92394085   0.40326425
1419.00   0.91981764   0.40410774
1420.00   0.91569173   0.40495238
1421.00   0.91156313   0.40579818
1422.00   0.90743183   0.40664514
1423.00   0.90329783   0.40749325
1424.00   0.89916114   0.40834251
1425.00   0.89502175   0.40919294
1426.00   0.89087967   0.41004452
1427.00   0.88673490   0.41089726
1428.00   0.88258743   0.41175116
1429.00   0.87843727   0.41260623
1430.00   0.87428442   0.41346245
1431.00   0.87012888   0.41431983
1432.00   0.86597064   0.41517838
1433.00   0.86180971   0.41603809
1434.00   0.85764610   0.41689897
1435.00   0.85347979   0.41776100
1436.00   0.84931079   0.41862421
1437.00   0.84513910   0.41948858
1438.00   0.84096473   0.42035412
1439.00   0.83678766   0.42122082
1440.00   0.83260791   0.42208869
1441.00   0.82842547   0.42295774
1442.00   0.82424034   0.42382795
1443.00   0.82005252   0.42469933
1444.00   0.81586202   0.42557188
1445.00   0.81166884   0.42644561
1446.00   0.80747296   0.42732050
1447.00   0.80327441   0.42819657
1448.00   0.79907316   0.42907382
1449.00   0.79486924   0.42995224
1450.00   0.79066262   0.43083183
1451.00   0.78645333   0.43171260
1452.00   0.78224135   0.43259455
1453.00   0.77802669   0.43347767
1454.00   0.77380935   0.43436198
1455.00   0.76958933   0.43524746
1456.00   0.76536662   0.43613412
1457.00   0.76114124   0.43702196
1458.00   0.75691317   0.43791098
1459.00   0.75268243   0.43880119
1460.00   0.74844900   0.43969257
1461.00   0.74421290   0.44058514
1462.00   0.73997412   0.44147889
1463.00   0.73573266   0.44237383
1464.00   0.73148852   0.44326995
1465.00   0.72724170   0.44416726
1466.00   0.72299221   0.44506576
1467.00   0.71874004   0.44596544
1468.00   0.71448520   0.44686631
1469.00   0.71022768   0.44776837
1470.00   0.70596748   0.44867162
1471.00   0.70170461   0.44957606
1472.00   0.69743907   0.45048169
1473.00   0.69317085   0.45138851
1474.00   0.68889996   0.45229653
1475.00   0.68462640   0.45320573
1476.00   0.68035016   0.45411613
1477.00   0.67607125   0.45502773
1478.00   0.67178967   0.45594052
1479.00   0.66750542   0.45685451
1480.00   0.66321850   0.45776969
1481.00   0.65892891   0.45868607
1482.00   0.65463665   0.45960365
1483.00   0.65034172   0.46052242
1484.00   0.64604412   0.46144240
1485.00   0.64174385   0.46236357
1486.00   0.63744091   0.46328595
1487.00   0.63313531   0.46420953
1488.00   0.62882704   0.46513431
1489.00   0.62451610   0.46606029
1490.00   0.62020250   0.46698748
1491.00   0.61588623   0.46791587
1492.00   0.61156730   0.46884546
1493.00   0.60724570   0.46977626
1494.00   0.60292143   0.47070827
1495.00   0.59859451   0.47164148
1496.00   0.59426491   0.47257590
1497.00   0.58993266   0.47351154
1498.00   0.58559774   0.47444837
1499.00   0.58126016   0.47538642
1500.00   0.57691992   0.47632568
1501.00   0.57257702   0.47726615
1502.00   0.56823146   0.47820784
1503.00   0.56388323   0.47915073
1504.00   0.55953235   0.48009484
1505.00   0.55517881   0.48104017
1506.00   0.55082260   0.48198670
1507.00   0.54646374   0.48293446
1508.00   0.54210223   0.48388343
1509.00   0.53773805   0.48483361
1510.00   0.53337122   0.48578501
1511.00   0.52900172   0.48673764
1512.00   0.52462958   0.48769148
1513.00   0.52025477   0.48864654
1514.00   0.51587732   0.48960282
1515.00   0.51149720   0.49056032
1516.00   0.50711444   0.49151904
1517.00   0.50272901   0.49247899
1518.00   0.49834094   0.49344016
1519.00   0.49395021   0.49440255
1520.00   0.48955683   0.49536616
1521.00   0.48516079   0.49633101
1522.00   0.48076211   0.49729707
1523.00   0.47636077   0.49826437
1524.00   0.47195678   0.49923289
1525.00   0.46755014   0.50020264
1526.00   0.46314085   0.50117362
1527.00   0.45872892   0.50214582
1528.00   0.45431433   0.50311926
1529.00   0.44989709   0.50409393
1530.00   0.44547721   0.50506983
1531.00   0.44105468   0.50604696
1532.00   0.43662950   0.50702533
1533.00   0.43220167   0.50800492
1534.00   0.42777120   0.50898576
1535.00   0.42333808   0.50996782
1536.00   0.41890232   0.51095113
1537.00   0.41446391   0.51193566
1538.00   0.41002285   0.51292144
1539.00   0.40557915   0.51390845
1540.00   0.40113281   0.51489670
1541.00   0.39668383   0.51588619
1542.00   0.39223220   0.51687693
1543.00   0.38777793   0.51786890
1544.00   0.38332102   0.51886211
1545.00   0.37886147   0.51985656
1546.00   0.37439927   0.52085226
1547.00   0.36993444   0.52184920
1548.00   0.36546696   0.52284738
1549.00   0.36099685   0.52384681
1550.00   0.35652410   0.52484748
1551.00   0.35204871   0.52584940
1552.00   0.34757068   0.52685256
1553.00   0.34309001   0.52785698
1554.00   0.33860670   0.52886264
1555.00   0.33412076   0.52986955
1556.00   0.32963218   0.53087770
1557.00   0.32514097   0.53188711
1558.00   0.32064712   0.53289777
1559.00   0.31615064   0.53390968
1560.00   0.31165152   0.53492284
1561.00   0.30714976   0.53593726
1562.00   0.30264538   0.53695293
1563.00   0.29813836   0.53796985
1564.00   0.29362871   0.53898803
1565.00   0.28911642   0.54000746
1566.00   0.28460151   0.54102815
1567.00   0.28008396   0.54205010
1568.00   0.27556378   0.54307330
1569.00   0.27104097   0.54409777
1570.00   0.26651553   0.54512349
1571.00   0.26198747   0.54615047
1572.00   0.25745677   0.54717871
1573.00   0.25292345   0.54820821
1574.00   0.24838749   0.54923897
1575.00   0.24384891   0.55027100
1576.00   0.23930770   0.55130429
1577.00   0.23476387   0.55233884
1578.00   0.23021741   0.55337466
1579.00   0.22566832   0.55441174
1580.00   0.22111661   0.55545009
1581.00   0.21656228   0.55648971
1582.00   0.21200532   0.55753059
1583.00   0.20744573   0.55857274
1584.00   0.20288352   0.55961616
1585.00   0.19831869   0.56066084
1586.00   0.19375124   0.56170680
1587.00   0.18918116   0.56275403
1588.00   0.18460847   0.56380253
1589.00   0.18003315   0.56485230
1590.00   0.17545521   0.56590334
1591.00   0.17087466   0.56695566
1592.00   0.16629148   0.56800925
1593.00   0.16170568   0.56906412
1594.00   0.15711727   0.57012026
1595.00   0.15252623   0.57117767
1596.00   0.14793258   0.57223637
1597.00   0.14333631   0.57329634
1598.00   0.13873743   0.57435759
1599.00   0.13413592   0.57542011
1600.00   0.12953181   0.57648392
1601.00   0.12492507   0.57754901
1602.00   0.12031573   0.57861537
1603.00   0.11570376   0.57968302
1604.00   0.11108919   0.58075195
1605.00   0.10647200   0.58182217
1606.00   0.10185219   0.58289367
1607.00   0.09722978   0.58396645
1608.00   0.09260475   0.58504051
1609.00   0.08797711   0.58611587
1610.00   0.08334686   0.58719250
1611.00   0.07871400   0.58827043
1612.00   0.07407853   0.58934964
1613.00   0.06944045   0.59043014
1614.00   0.06479976   0.59151193
1615.00   0.06015646   0.59259501
1616.00   0.05551055   0.59367938
1617.00   0.05086204   0.59476504
1618.00   0.04621091   0.59585199
1619.00   0.04155718   0.59694023
1620.00   0.03690085   0.59802977
1621.00   0.03224191   0.59912060
1622.00   0.02758036   0.60021272
1623.00   0.02291621   0.60130614
1624.00   0.01824945   0.60240086
1625.00   0.01358009   0.60349687
1626.00   0.00890813   0.60459418
1627.00   0.00423356   0.60569278
1628.00  -0.00044361   0.60679269
1629.00  -0.00512338   0.60789389
1630.00  -0.00980576   0.60899639
1631.00  -0.01449073   0.61010020
1632.00  -0.01917831   0.61120530
1633.00  -0.02386848   0.61231170
1634.00  -0.02856126   0.61341941
1635.00  -0.03325663   0.61452842
1636.00  -0.03795461   0.61563874
1637.00  -0.04265518   0.61675036
1638.00  -0.04735835   0.61786328
1639.00  -0.05206411   0.61897751
1640.00  -0.05677248   0.62009304
1641.00  -0.06148344   0.62120989
1642.00  -0.06619699   0.62232804
1643.00  -0.07091315   0.62344750
1644.00  -0.07563189   0.62456826
1645.00  -0.08035323   0.62569034
1646.00  -0.08507717   0.62681373
1647.00  -0.08980370   0.62793843
1648.00  -0.09453282   0.62906444
1649.00  -0.09926453   0.63019176
1650.00  -0.10399884   0.63132040
1651.00  -0.10873574   0.63245035
1652.00  -0.11347523   0.63358161
1653.00  -0.11821731   0.63471419
1654.00  -0.12296197   0.63584808
1655.00  -0.12770923   0.63698329
1656.00  -0.13245908   0.63811982
1657.00  -0.13721152   0.63925767
1658.00  -0.14196654   0.64039683
1659.00  -0.14672416   0.64153731
1660.00  -0.15148436   0.64267912
1661.00  -0.15624714   0.64382224
1662.00  -0.16101252   0.64496668
1663.00  -0.16578048   0.64611245
1664.00  -0.17055102   0.64725954
1665.00  -0.17532415   0.64840795
1666.00  -0.18009986   0.64955768
1667.00  -0.18487816   0.65070874
1668.00  -0.18965904   0.65186113
1669.00  -0.19444250   0.65301483
1670.00  -0.19922855   0.65416987
1671.00  -0.20401718   0.65532623
1672.00  -0.20880839   0.65648392
1673.00  -0.21360218   0.65764294
1674.00  -0.21839855   0.65880329
1675.00  -0.22319750   0.65996497
1676.00  -0.22799903   0.66112798
1677.00  -0.23280314   0.66229231
1678.00  -0.23760983   0.66345798
1679.00  -0.24241909   0.66462499
1680.00  -0.24723093   0.66579332
1681.00  -0.25204535   0.66696299
1682.00  -0.25686235   0.66813399
1683.00  -0.26168192   0.66930633
1684.00  -0.26650407   0.67048001
1685.00  -0.27132879   0.67165502
1686.00  -0.27615609   0.67283136
1687.00  -0.28098596   0.67400905
1688.00  -0.28581841   0.67518807
1689.00  -0.29065343   0.67636843
1690.00  -0.29549102   0.67755013
1691.00  -0.30033118   0.67873317
1692.00  -0.30517392   0.67991756
1693.00  -0.31001922   0.68110328
1694.00  -0.31486710   0.68229034
1695.00  -0.31971755   0.68347875
1696.00  -0.32457056   0.68466850
1697.00  -0.32942615   0.68585960
1698.00  -0.33428430   0.68705204
1699.00  -0.33914503   0.68824583
1700.00  -0.34400832   0.68944096
1701.00  -0.34887418   0.69063744
1702.00  -0.35374260   0.69183527
1703.00  -0.35861359   0.69303444
1704.00  -0.36348715   0.69423496
1705.00  -0.36836327   0.69543684
1706.00  -0.37324196   0.69664006
1707.00  -0.37812321   0.69784463
1708.00  -0.38300702   0.69905056
1709.00  -0.38789340   0.70025783
1710.00  -0.39278234   0.70146646
1711.00  -0.39767384   0.70267645
1712.00  -0.40256791   0.70388778
1713.00  -0.40746453   0.70510047
1714.00  -0.41236372   0.70631452
1715.00  -0.41726547   0.70752992
1716.00  -0.42216977   0.70874668
1717.00  -0.42707664   0.70996480
1718.00  -0.43198606   0.71118427
1719.00  -0.43689805   0.71240511
1720.00  -0.44181259   0.71362730
1721.00  -0.44672968   0.71485085
1722.00  -0.45164934   0.71607576
1723.00  -0.45657155   0.71730203
1724.00  -0.46149632   0.71852967
1725.00  -0.46642364   0.71975867
1726.00  -0.47135352   0.72098903
1727.00  -0.47628595   0.72222075
1728.00  -0.48122094   0.72345384
1729.00  -0.48615848   0.72468829
1730.00  -0.49109857   0.72592411
1731.00  -0.49604121   0.72716130
1732.00  -0.50098641   0.72839985
1733.00  -0.50593415   0.72963977
1734.00  -0.51088445   0.73088106
1735.00  -0.51583730   0.73212372
1736.00  -0.52079270   0.73336775
1737.00  -0.52575065   0.73461314
1738.00  -0.53071114   0.73585991
1739.00  -0.53567419   0.73710805
1740.00  -0.54063978   0.73835756
1741.00  -0.54560792   0.73960845
1742.00  -0.55057861   0.74086071
1743.00  -0.55555184   0.74211434
1744.00  -0.56052762   0.74336934
1745.00  -0.56550595   0.74462573
1746.00  -0.57048681   0.74588349
1747.00  -0.57547023   0.74714262
1748.00  -0.58045619   0.74840313
1749.00  -0.58544469   0.74966502
1750.00  -0.59043573   0.75092829
1751.00  -0.59542932   0.75219294
1752.00  -0.60042544   0.75345897
1753.00  -0.60542411   0.75472638
1754.00  -0.61042532   0.75599517
1755.00  -0.61542907   0.75726534
1756.00  -0.62043536   0.75853689
1757.00  -0.62544419   0.75980983
1758.00  -0.63045556   0.76108415
1759.00  -0.63546947   0.76235986
1760.00  -0.64048591   0.76363695
1761.00  -0.64550489   0.76491543
1762.00  -0.65052641   0.76619529
1763.00  -0.65555046   0.76747654
1764.00  -0.66057705   0.76875918
1765.00  -0.66560618   0.77004320
1766.00  -0.67063784   0.77132862
1767.00  -0.67567203   0.77261542
1768.00  -0.68070876   0.77390361
1769.00  -0.68574802   0.77519320
1770.00  -0.69078982   0.77648418
1771.00  -0.69583414   0.77777655
1772.00  -0.70088100   0.77907031
1773.00  -0.70593039   0.78036546
1774.00  -0.71098231   0.78166201
1775.00  -0.71603676   0.78295995
1776.00  -0.72109374   0.78425929
1777.00  -0.72615325   0.78556003
1778.00  -0.73121529   0.78686216
1779.00  -0.73627985   0.78816569
1780.00  -0.74134695   0.78947062
1781.00  -0.74641657   0.79077694
1782.00  -0.75148871   0.79208466
1783.00  -0.75656339   0.79339379
1784.00  -0.76164059   0.79470431
1785.00  -0.76672031   0.79601624
1786.00  -0.77180256   0.79732957
1787.00  -0.77688733   0.79864430
1788.00  -0.78197463   0.79996043
1789.00  -0.78706445   0.80127796
1790.00  -0.79215679   0.80259690
1791.00  -0.79725165   0.80391725
1792.00  -0.80234904   0.80523900
1793.00  -0.80744894   0.80656216
1794.00  -0.81255137   0.80788672
1795.00  -0.81765632   0.80921269
1796.00  -0.82276378   0.81054007
1797.00  -0.82787377   0.81186886
1798.00  -0.83298627   0.81319906
1799.00  -0.83810129   0.81453066
1800.00  -0.84321883   0.81586368
1801.00  -0.84833889   0.81719811
1802.00  -0.85346146   0.81853395
1803.00  -0.85858655   0.81987120
1804.00  -0.86371415   0.82120987
1805.00  -0.86884427   0.82254995
1806.00  -0.87397690   0.82389145
1807.00  -0.87911205   0.82523435
1808.00  -0.88424971   0.82657868
1809.00  -0.88938988   0.82792442
1810.00  -0.89453257   0.82927158
1811.00  -0.89967776   0.83062016
1812.00  -0.90482547   0.83197015
1813.00  -0.90997569   0.83332156
1814.00  -0.91512842   0.83467439
1815.00  -0.92028366   0.83602865
1816.00  -0.92544140   0.83738432
1817.00  -0.93060166   0.83874141
1818.00  -0.93576443   0.84009993
1819.00  -0.94092970   0.84145987
1820.00  -0.94609748   0.84282123
1821.00  -0.95126776   0.84418402
1822.00  -0.95644055   0.84554823
1823.00  -0.96161585   0.84691386
1824.00  -0.96679365   0.84828092
1825.00  -0.97197396   0.84964941
1826.00  -0.97715677   0.85101933
1827.00  -0.98234209   0.85239067
1828.00  -0.98752990   0.85376344
1829.00  -0.99272022   0.85513764
1830.00  -0.99791305   0.85651327
1831.00  -1.00310837   0.85789033
1832.00  -1.00830619   0.85926882
1833.00  -1.01350652   0.86064874
1834.00  -1.01870934   0.86203009
1835.00  -1.02391467   0.86341287
1836.00  -1.02912249   0.86479709
1837.00  -1.03433281   0.86618275
1838.00  -1.03954563   0.86756983
1839.00  -1.04476094   0.86895835
1840.00  -1.04997875   0.87034831
1841.00  -1.05519906   0.87173971
1842.00  -1.06042187   0.87313254
1843.00  -1.06564717   0.87452681
1844.00  -1.07087496   0.87592251
1845.00  -1.07610525   0.87731966
1846.00  -1.08133803   0.87871825
1847.00  -1.08657331   0.88011827
1848.00  -1.09181107   0.88151974
1849.00  -1.09705133   0.88292265
1850.00  -1.10229408   0.88432699
1851.00  -1.10753933   0.88573279
1852.00  -1.11278706   0.88714002
1853.00  -1.11803728   0.88854870
1854.00  -1.12328999   0.88995883
1855.00  -1.12854519   0.89137039
1856.00  -1.13380288   0.89278341
1857.00  -1.13906306   0.89419787
1858.00  -1.14432572   0.89561378
1859.00  -1.14959087   0.89703113
1860.00  -1.15485851   0.89844994
1861.00  -1.16012863   0.89987019
1862.00  -1.16540124   0.90129189
1863.00  -1.17067633   0.90271504
1864.00  -1.17595391   0.90413964
1865.00  -1.18123397   0.90556570
1866.00  -1.18651652   0.90699320
1867.00  -1.19180154   0.90842216
1868.00  -1.19708905   0.90985257
1869.00  -1.20237904   0.91128444
1870.00  -1.20767151   0.91271776
1871.00  -1.21296646   0.91415253
1872.00  -1.21826389   0.91558876
1873.00  -1.22356380   0.91702645
1874.00  -1.22886619   0.91846559
1875.00  -1.23417106   0.91990619
1876.00  -1.23947841   0.92134825
1877.00  -1.24478823   0.92279176
1878.00  -1.25010053   0.92423674
1879.00  -1.25541531   0.92568318
1880.00  -1.26073256   0.92713107
1881.00  -1.26605228   0.92858043
1882.00  -1.27137449   0.93003125
1883.00  -1.27669916   0.93148353
1884.00  -1.28202631   0.93293728
1885.00  -1.28735593   0.93439248
1886.00  -1.29268803   0.93584916
1887.00  -1.29802260   0.93730729
1888.00  -1.30335963   0.93876690
1889.00  -1.30869914   0.94022797
1890.00  -1.31404112   0.94169050
1891.00  -1.31938557   0.94315450
1892.00  -1.32473249   0.94461998
1893.00  -1.33008188   0.94608691
1894.00  -1.33543374   0.94755532
1895.00  -1.34078806   0.94902520
1896.00  -1.34614485   0.95049655
1897.00  -1.35150411   0.95196937
1898.00  -1.35686583   0.95344366
1899.00  -1.36223002   0.95491942
1900.00  -1.36759668   0.95639666
1901.00  -1.37296580   0.95787537
1902.00  -1.37833738   0.95935555
1903.00  -1.38371143   0.96083721
1904.00  -1.38908794   0.96232034
1905.00  -1.39446691   0.96380495
1906.00  -1.39984834   0.96529103
1907.00  -1.40523224   0.96677860
1908.00  -1.41061859   0.96826764
1909.00  -1.41600741   0.96975815
1910.00  -1.42139869   0.97125015
1911.00  -1.42679242   0.97274363
1912.00  -1.43218862   0.97423858
1913.00  -1.43758727   0.97573502
1914.00  -1.44298838   0.97723294
1915.00  -1.44839194   0.97873234
1916.00  -1.45379797   0.98023322
1917.00  -1.45920645   0.98173559
1918.00  -1.46461738   0.98323944
1919.00  -1.47003077   0.98474477
1920.00  -1.47544662   0.98625159
1921.00  -1.48086492   0.98775989
1922.00  -1.48628567   0.98926968
1923.00  -1.49170887   0.99078096
1924.00  -1.49713453   0.99229372
1925.00  -1.50256264   0.99380798
1926.00  -1.50799320   0.99532372
1927.00  -1.51342621   0.99684095
1928.00  -1.51886167   0.99835967
1929.00  -1.52429958   0.99987988
1930.00  -1.52973993   1.00140158
1931.00  -1.53518274   1.00292477
1932.00  -1.54062800   1.00444946
1933.00  -1.54607570   1.00597563
1934.00  -1.55152585   1.00750330
1935.00  -1.55697845   1.00903247
1936.00  -1.56243349   1.01056313
1937.00  -1.56789097   1.01209528
1938.00  -1.57335091   1.01362893
1939.00  -1.57881328   1.01516408
1940.00  -1.58427810   1.01670072
1941.00  -1.58974536   1.01823887
1942.00  -1.59521507   1.01977851
1943.00  -1.60068722   1.02131964
1944.00  -1.60616180   1.02286228
1945.00  -1.61163883   1.02440642
1946.00  -1.61711830   1.02595206
1947.00  -1.62260021   1.02749920
1948.00  -1.62808456   1.02904784
1949.00  -1.63357135   1.03059798
1950.00  -1.63906058   1.03214963
1951.00  -1.64455224   1.03370278
1952.00  -1.65004634   1.03525743
1953.00  -1.65554288   1.03681359
1954.00  -1.66104185   1.03837125
1955.00  -1.66654326   1.03993042
1956.00  -1.67204710   1.04149110
1957.00  -1.67755338   1.04305328
1958.00  -1.68306209   1.04461698
1959.00  -1.68857324   1.04618218
1960.00  -1.69408682   1.04774888
1961.00  -1.69960283   1.04931710
1962.00  -1.70512127   1.05088683
1963.00  -1.71064214   1.05245807
1964.00  -1.71616545   1.05403082
1965.00  -1.72169118   1.05560508
1966.00  -1.72721935   1.05718086
1967.00  -1.73274994   1.05875815
1968.00  -1.73828296   1.06033695
1969.00  -1.74381841   1.06191726
1970.00  -1.74935628   1.06349910
1971.00  -1.75489659   1.06508244
1972.00  -1.76043932   1.06666730
1973.00  -1.76598447   1.06825368
1974.00  -1.77153205   1.06984158
1975.00  -1.77708206   1.07143099
1976.00  -1.78263448   1.07302193
1977.00  -1.78818934   1.07461438
1978.00  -1.79374661   1.07620835
1979.00  -1.79930631   1.07780384
1980.00  -1.80486843   1.07940085
1981.00  -1.81043297   1.08099939
1982.00  -1.81599993   1.08259944
1983.00  -1.82156931   1.08420102
1984.00  -1.82714111   1.08580412
1985.00  -1.83271533   1.08740875
1986.00  -1.83829197   1.08901490
1987.00  -1.84387103   1.09062257
1988.00  -1.84945250   1.09223177
1989.00  -1.85503640   1.09384250
1990.00  -1.86062270   1.09545475
1991.00  -1.86621143   1.09706853
1992.00  -1.87180257   1.09868384
1993.00  -1.87739612   1.10030067
1994.00  -1.88299209   1.10191904
1995.00  -1.88859047   1.10353893
1996.00  -1.89419126   1.10516036
1997.00  -1.89979447   1.10678331
1998.00  -1.90540009   1.10840780
1999.00  -1.91100812   1.11003382
2000.00  -1.91661856   1.11166137
