wavelength(nm)         real         imag
200.00   3.71514322   0.00353295
201.00   3.71329072   0.00358620
202.00   3.71142898   0.00363997
203.00   3.70955803   0.00369429
204.00   3.70767784   0.00374914
205.00   3.70578844   0.00380453
206.00   3.70388980   0.00386046
207.00   3.70198195   0.00391694
208.00   3.70006487   0.00397397
209.00   3.69813856   0.00403155
210.00   3.69620303   0.00408968
211.00   3.69425827   0.00414836
212.00   3.69230430   0.00420761
213.00   3.69034110   0.00426741
214.00   3.68836867   0.00432778
215.00   3.68638702   0.00438872
216.00   3.68439615   0.00445023
217.00   3.68239606   0.00451230
218.00   3.68038674   0.00457496
219.00   3.67836821   0.00463819
220.00   3.67634045   0.00470199
221.00   3.67430347   0.00476638
222.00   3.67225726   0.00483136
223.00   3.67020184   0.00489692
224.00   3.66813719   0.00496308
225.00   3.66606333   0.00502982
226.00   3.66398024   0.00509717
227.00   3.66188794   0.00516511
228.00   3.65978641   0.00523365
229.00   3.65767566   0.00530279
230.00   3.65555569   0.00537254
231.00   3.65342651   0.00544290
232.00   3.65128810   0.00551387
233.00   3.64914048   0.00558545
234.00   3.64698364   0.00565765
235.00   3.64481757   0.00573047
236.00   3.64264229   0.00580392
237.00   3.64045780   0.00587798
238.00   3.63826408   0.00595268
239.00   3.63606115   0.00602800
240.00   3.63384900   0.00610395
241.00   3.63162763   0.00618055
242.00   3.62939705   0.00625777
243.00   3.62715724   0.00633564
244.00   3.62490823   0.00641415
245.00   3.62264999   0.00649331
246.00   3.62038254   0.00657312
247.00   3.61810588   0.00665357
248.00   3.61582000   0.00673468
249.00   3.61352490   0.00681645
250.00   3.61122059   0.00689887
251.00   3.60890707   0.00698196
252.00   3.60658433   0.00706571
253.00   3.60425238   0.00715013
254.00   3.60191121   0.00723521
255.00   3.59956083   0.00732097
256.00   3.59720124   0.00740740
257.00   3.59483243   0.00749451
258.00   3.59245441   0.00758230
259.00   3.59006718   0.00767078
260.00   3.58767073   0.00775993
261.00   3.58526508   0.00784978
262.00   3.58285021   0.00794031
263.00   3.58042613   0.00803154
264.00   3.57799284   0.00812347
265.00   3.57555033   0.00821609
266.00   3.57309862   0.00830941
267.00   3.57063770   0.00840344
268.00   3.56816756   0.00849817
269.00   3.56568822   0.00859361
270.00   3.56319967   0.00868977
271.00   3.56070191   0.00878664
272.00   3.55819493   0.00888422
273.00   3.55567875   0.00898252
274.00   3.55315337   0.00908155
275.00   3.55061877   0.00918130
276.00   3.54807496   0.00928178
277.00   3.54552195   0.00938299
278.00   3.54295973   0.00948493
279.00   3.54038830   0.00958760
280.00   3.53780767   0.00969101
281.00   3.53521783   0.00979517
282.00   3.53261878   0.00990006
283.00   3.53001053   0.01000571
284.00   3.52739307   0.01011210
285.00   3.52476641   0.01021924
286.00   3.52213054   0.01032713
287.00   3.51948547   0.01043578
288.00   3.51683119   0.01054519
289.00   3.51416770   0.01065537
290.00   3.51149502   0.01076630
291.00   3.50881313   0.01087800
292.00   3.50612203   0.01099048
293.00   3.50342174   0.01110372
294.00   3.50071224   0.01121774
295.00   3.49799353   0.01133253
296.00   3.49526563   0.01144811
297.00   3.49252852   0.01156447
298.00   3.48978222   0.01168161
299.00   3.48702671   0.01179954
300.00   3.48426200   0.01191826
301.00   3.48148808   0.01203778
302.00   3.47870497   0.01215809
303.00   3.47591266   0.01227919
304.00   3.47311115   0.01240110
305.00   3.47030044   0.01252382
306.00   3.46748053   0.01264734
307.00   3.46465142   0.01277166
308.00   3.46181311   0.01289680
309.00   3.45896561   0.01302276
310.00   3.45610890   0.01314952
311.00   3.45324300   0.01327711
312.00   3.45036790   0.01340553
313.00   3.44748361   0.01353476
314.00   3.44459011   0.01366482
315.00   3.44168743   0.01379572
316.00   3.43877554   0.01392744
317.00   3.43585446   0.01406000
318.00   3.43292418   0.01419340
319.00   3.42998471   0.01432764
320.00   3.42703605   0.01446272
321.00   3.42407819   0.01459865
322.00   3.42111113   0.01473542
323.00   3.41813488   0.01487305
324.00   3.41514944   0.01501153
325.00   3.41215481   0.01515086
326.00   3.40915098   0.01529106
327.00   3.40613796   0.01543211
328.00   3.40311575   0.01557403
329.00   3.40008434   0.01571682
330.00   3.39704375   0.01586047
331.00   3.39399396   0.01600500
332.00   3.39093498   0.01615040
333.00   3.38786681   0.01629668
334.00   3.38478945   0.01644384
335.00   3.38170291   0.01659188
336.00   3.37860717   0.01674080
337.00   3.37550224   0.01689062
338.00   3.37238813   0.01704132
339.00   3.36926482   0.01719291
340.00   3.36613233   0.01734541
341.00   3.36299065   0.01749880
342.00   3.35983978   0.01765309
343.00   3.35667972   0.01780828
344.00   3.35351048   0.01796438
345.00   3.35033205   0.01812139
346.00   3.34714444   0.01827931
347.00   3.34394764   0.01843814
348.00   3.34074166   0.01859789
349.00   3.33752648   0.01875856
350.00   3.33430213   0.01892015
351.00   3.33106859   0.01908266
352.00   3.32782587   0.01924610
353.00   3.32457396   0.01941047
354.00   3.32131287   0.01957578
355.00   3.31804260   0.01974202
356.00   3.31476314   0.01990919
357.00   3.31147450   0.02007731
358.00   3.30817668   0.02024636
359.00   3.30486968   0.02041637
360.00   3.30155350   0.02058732
361.00   3.29822814   0.02075922
362.00   3.29489359   0.02093207
363.00   3.29154987   0.02110588
364.00   3.28819697   0.02128065
365.00   3.28483488   0.02145638
366.00   3.28146362   0.02163308
367.00   3.27808318   0.02181073
368.00   3.27469356   0.02198936
369.00   3.27129477   0.02216896
370.00   3.26788679   0.02234954
371.00   3.26446964   0.02253109
372.00   3.26104332   0.02271362
373.00   3.25760781   0.02289713
374.00   3.25416313   0.02308162
375.00   3.25070928   0.02326711
376.00   3.24724625   0.02345358
377.00   3.24377404   0.02364105
378.00   3.24029266   0.02382951
379.00   3.23680211   0.02401896
380.00   3.23330238   0.02420942
381.00   3.22979348   0.02440088
382.00   3.22627541   0.02459335
383.00   3.22274816   0.02478682
384.00   3.21921174   0.02498131
385.00   3.21566615   0.02517681
386.00   3.21211139   0.02537332
387.00   3.20854746   0.02557086
388.00   3.20497436   0.02576941
389.00   3.20139208   0.02596899
390.00   3.19780064   0.02616959
391.00   3.19420003   0.02637123
392.00   3.19059025   0.02657389
393.00   3.18697130   0.02677759
394.00   3.18334318   0.02698233
395.00   3.17970589   0.02718810
396.00   3.17605944   0.02739492
397.00   3.17240382   0.02760278
398.00   3.16873903   0.02781169
399.00   3.16506508   0.02802165
400.00   3.16138196   0.02823266
401.00   3.15768967   0.02844473
402.00   3.15398822   0.02865785
403.00   3.15027761   0.02887204
404.00   3.14655783   0.02908729
405.00   3.14282889   0.02930360
406.00   3.13909078   0.02952098
407.00   3.13534351   0.02973944
408.00   3.13158708   0.02995896
409.00   3.12782148   0.03017956
410.00   3.12404673   0.03040124
411.00   3.12026281   0.03062401
412.00   3.11646973   0.03084785
413.00   3.11266749   0.03107278
414.00   3.10885610   0.03129881
415.00   3.10503554   0.03152592
416.00   3.10120582   0.03175413
417.00   3.09736694   0.03198343
418.00   3.09351891   0.03221383
419.00   3.08966171   0.03244534
420.00   3.08579536   0.03267795
421.00   3.08191985   0.03291167
422.00   3.07803519   0.03314649
423.00   3.07414137   0.03338244
424.00   3.07023839   0.03361949
425.00   3.06632626   0.03385766
426.00   3.06240497   0.03409696
427.00   3.05847453   0.03433737
428.00   3.05453493   0.03457892
429.00   3.05058618   0.03482159
430.00   3.04662828   0.03506539
431.00   3.04266122   0.03531032
432.00   3.03868501   0.03555639
433.00   3.03469965   0.03580360
434.00   3.03070514   0.03605195
435.00   3.02670147   0.03630145
436.00   3.02268866   0.03655209
437.00   3.01866669   0.03680388
438.00   3.01463558   0.03705682
439.00   3.01059531   0.03731091
440.00   3.00654590   0.03756616
441.00   3.00248733   0.03782258
442.00   2.99841962   0.03808015
443.00   2.99434277   0.03833889
444.00   2.99025676   0.03859879
445.00   2.98616161   0.03885987
446.00   2.98205731   0.03912212
447.00   2.97794387   0.03938554
448.00   2.97382128   0.03965014
449.00   2.96968954   0.03991592
450.00   2.96554866   0.04018289
451.00   2.96139864   0.04045104
452.00   2.95723947   0.04072037
453.00   2.95307116   0.04099090
454.00   2.94889371   0.04126262
455.00   2.94470711   0.04153554
456.00   2.94051137   0.04180966
457.00   2.93630650   0.04208497
458.00   2.93209248   0.04236149
459.00   2.92786932   0.04263922
460.00   2.92363702   0.04291816
461.00   2.91939558   0.04319831
462.00   2.91514500   0.04347967
463.00   2.91088528   0.04376224
464.00   2.90661643   0.04404604
465.00   2.90233843   0.04433106
466.00   2.89805130   0.04461731
467.00   2.89375504   0.04490478
468.00   2.88944963   0.04519348
469.00   2.88513509   0.04548341
470.00   2.88081142   0.04577458
471.00   2.87647861   0.04606698
472.00   2.87213667   0.04636063
473.00   2.86778559   0.04665552
474.00   2.86342538   0.04695165
475.00   2.85905603   0.04724903
476.00   2.85467756   0.04754766
477.00   2.85028995   0.04784755
478.00   2.84589321   0.04814869
479.00   2.84148734   0.04845108
480.00   2.83707233   0.04875474
481.00   2.83264820   0.04905967
482.00   2.82821494   0.04936586
483.00   2.82377255   0.04967331
484.00   2.81932103   0.04998204
485.00   2.81486038   0.05029204
486.00   2.81039061   0.05060332
487.00   2.80591171   0.05091588
488.00   2.80142368   0.05122972
489.00   2.79692652   0.05154484
490.00   2.79242024   0.05186126
491.00   2.78790483   0.05217896
492.00   2.78338030   0.05249795
493.00   2.77884665   0.05281823
494.00   2.77430387   0.05313982
495.00   2.76975197   0.05346270
496.00   2.76519094   0.05378689
497.00   2.76062079   0.05411238
498.00   2.75604152   0.05443918
499.00   2.75145313   0.05476728
500.00   2.74685562   0.05509670
501.00   2.74224899   0.05542744
502.00   2.73763324   0.05575950
503.00   2.73300837   0.05609287
504.00   2.72837438   0.05642757
505.00   2.72373127   0.05676359
506.00   2.71907905   0.05710094
507.00   2.71441770   0.05743963
508.00   2.70974724   0.05777964
509.00   2.70506767   0.05812099
510.00   2.70037898   0.05846368
511.00   2.69568117   0.05880772
512.00   2.69097425   0.05915309
513.00   2.68625821   0.05949981
514.00   2.68153306   0.05984788
515.00   2.67679880   0.06019731
516.00   2.67205543   0.06054808
517.00   2.66730294   0.06090022
518.00   2.66254134   0.06125371
519.00   2.65777063   0.06160856
520.00   2.65299081   0.06196478
521.00   2.64820188   0.06232237
522.00   2.64340384   0.06268132
523.00   2.63859669   0.06304165
524.00   2.63378043   0.06340336
525.00   2.62895507   0.06376644
526.00   2.62412059   0.06413090
527.00   2.61927701   0.06449674
528.00   2.61442433   0.06486397
529.00   2.60956253   0.06523258
530.00   2.60469164   0.06560259
531.00   2.59981163   0.06597399
532.00   2.59492253   0.06634678
533.00   2.59002432   0.06672097
534.00   2.58511700   0.06709657
535.00   2.58020058   0.06747356
536.00   2.57527507   0.06785197
537.00   2.57034045   0.06823178
538.00   2.56539672   0.06861300
539.00   2.56044390   0.06899563
540.00   2.55548198   0.06937968
541.00   2.55051096   0.06976515
542.00   2.54553084   0.07015205
543.00   2.54054162   0.07054036
544.00   2.53554330   0.07093010
545.00   2.53053589   0.07132127
546.00   2.52551938   0.07171388
547.00   2.52049377   0.07210791
548.00   2.51545907   0.07250339
549.00   2.51041527   0.07290030
550.00   2.50536238   0.07329865
551.00   2.50030039   0.07369845
552.00   2.49522931   0.07409970
553.00   2.49014914   0.07450240
554.00   2.48505987   0.07490654
555.00   2.47996152   0.07531215
556.00   2.47485407   0.07571921
557.00   2.46973753   0.07612773
558.00   2.46461190   0.07653771
559.00   2.45947718   0.07694916
560.00   2.45433337   0.07736208
561.00   2.44918048   0.07777646
562.00   2.44401849   0.07819232
563.00   2.43884742   0.07860966
564.00   2.43366726   0.07902847
565.00   2.42847802   0.07944876
566.00   2.42327969   0.07987054
567.00   2.41807227   0.08029380
568.00   2.41285578   0.08071855
569.00   2.40763019   0.08114479
570.00   2.40239552   0.08157253
571.00   2.39715177   0.08200176
572.00   2.39189894   0.08243249
573.00   2.38663703   0.08286472
574.00   2.38136603   0.08329845
575.00   2.37608596   0.08373369
576.00   2.37079680   0.08417044
577.00   2.36549857   0.08460870
578.00   2.36019125   0.08504848
579.00   2.35487486   0.08548977
580.00   2.34954939   0.08593258
581.00   2.34421484   0.08637692
582.00   2.33887122   0.08682277
583.00   2.33351852   0.08727016
584.00   2.32815675   0.08771907
585.00   2.32278590   0.08816951
586.00   2.31740597   0.08862149
587.00   2.31201698   0.08907501
588.00   2.30661891   0.08953007
589.00   2.30121176   0.08998667
590.00   2.29579555   0.09044481
591.00   2.29037026   0.09090450
592.00   2.28493591   0.09136575
593.00   2.27949248   0.09182854
594.00   2.27403998   0.09229289
595.00   2.26857842   0.09275880
596.00   2.26310779   0.09322626
597.00   2.25762808   0.09369529
598.00   2.25213932   0.09416589
599.00   2.24664148   0.09463805
600.00   2.24113458   0.09511179
601.00   2.23561861   0.09558709
602.00   2.23009358   0.09606398
603.00   2.22455949   0.09654244
604.00   2.21901633   0.09702248
605.00   2.21346411   0.09750410
606.00   2.20790283   0.09798732
607.00   2.20233248   0.09847211
608.00   2.19675307   0.09895851
609.00   2.19116461   0.09944649
610.00   2.18556708   0.09993607
611.00   2.17996049   0.10042725
612.00   2.17434485   0.10092003
613.00   2.16872015   0.10141441
614.00   2.16308639   0.10191040
615.00   2.15744357   0.10240800
616.00   2.15179170   0.10290722
617.00   2.14613077   0.10340804
618.00   2.14046078   0.10391048
619.00   2.13478174   0.10441454
620.00   2.12909365   0.10492023
621.00   2.12339651   0.10542753
622.00   2.11769031   0.10593647
623.00   2.11197506   0.10644703
624.00   2.10625076   0.10695923
625.00   2.10051740   0.10747306
626.00   2.09477500   0.10798852
627.00   2.08902355   0.10850563
628.00   2.08326305   0.10902438
629.00   2.07749350   0.10954477
630.00   2.07171490   0.11006682
631.00   2.06592726   0.11059051
632.00   2.06013057   0.11111585
633.00   2.05432484   0.11164285
634.00   2.04851006   0.11217151
635.00   2.04268623   0.11270182
636.00   2.03685336   0.11323380
637.00   2.03101145   0.11376745
638.00   2.02516050   0.11430276
639.00   2.01930050   0.11483974
640.00   2.01343146   0.11537840
641.00   2.00755338   0.11591873
642.00   2.00166627   0.11646074
643.00   1.99577011   0.11700442
644.00   1.98986491   0.11754980
645.00   1.98395068   0.11809686
646.00   1.97802741   0.11864560
647.00   1.97209510   0.11919604
648.00   1.96615375   0.11974817
649.00   1.96020337   0.12030200
650.00   1.95424396   0.12085752
651.00   1.94827551   0.12141475
652.00   1.94229802   0.12197367
653.00   1.93631151   0.12253431
654.00   1.93031596   0.12309665
655.00   1.92431138   0.12366071
656.00   1.91829777   0.12422648
657.00   1.91227513   0.12479396
658.00   1.90624346   0.12536317
659.00   1.90020276   0.12593409
660.00   1.89415303   0.12650674
661.00   1.88809427   0.12708112
662.00   1.88202649   0.12765722
663.00   1.87594968   0.12823506
664.00   1.86986385   0.12881463
665.00   1.86376899   0.12939593
666.00   1.85766510   0.12997898
667.00   1.85155219   0.13056377
668.00   1.84543026   0.13115030
669.00   1.83929931   0.13173858
670.00   1.83315933   0.13232861
671.00   1.82701033   0.13292039
672.00   1.82085232   0.13351392
673.00   1.81468528   0.13410921
674.00   1.80850922   0.13470626
675.00   1.80232415   0.13530507
676.00   1.79613006   0.13590565
677.00   1.78992695   0.13650800
678.00   1.78371482   0.13711211
679.00   1.77749368   0.13771800
680.00   1.77126352   0.13832566
681.00   1.76502435   0.13893510
682.00   1.75877617   0.13954632
683.00   1.75251897   0.14015932
684.00   1.74625276   0.14077410
685.00   1.73997753   0.14139068
686.00   1.73369330   0.14200904
687.00   1.72740006   0.14262920
688.00   1.72109780   0.14325115
689.00   1.71478654   0.14387490
690.00   1.70846627   0.14450044
691.00   1.70213699   0.14512780
692.00   1.69579871   0.14575695
693.00   1.68945142   0.14638792
694.00   1.68309512   0.14702069
695.00   1.67672982   0.14765528
696.00   1.67035551   0.14829168
697.00   1.66397220   0.14892990
698.00   1.65757989   0.14956995
699.00   1.65117857   0.15021181
700.00   1.64476826   0.15085550
701.00   1.63834894   0.15150102
702.00   1.63192063   0.15214837
703.00   1.62548331   0.15279755
704.00   1.61903699   0.15344857
705.00   1.61258168   0.15410142
706.00   1.60611737   0.15475612
707.00   1.59964407   0.15541266
708.00   1.59316176   0.15607104
709.00   1.58667047   0.15673128
710.00   1.58017017   0.15739336
711.00   1.57366089   0.15805730
712.00   1.56714261   0.15872309
713.00   1.56061534   0.15939075
714.00   1.55407907   0.16006026
715.00   1.54753382   0.16073164
716.00   1.54097958   0.16140488
717.00   1.53441634   0.16207999
718.00   1.52784412   0.16275697
719.00   1.52126291   0.16343583
720.00   1.51467271   0.16411656
721.00   1.50807353   0.16479917
722.00   1.50146536   0.16548366
723.00   1.49484820   0.16617004
724.00   1.48822206   0.16685830
725.00   1.48158694   0.16754845
726.00   1.47494283   0.16824049
727.00   1.46828974   0.16893443
728.00   1.46162767   0.16963026
729.00   1.45495662   0.17032799
730.00   1.44827659   0.17102763
731.00   1.44158757   0.17172916
732.00   1.43488958   0.17243261
733.00   1.42818261   0.17313796
734.00   1.42146667   0.17384522
735.00   1.41474175   0.17455440
736.00   1.40800785   0.17526549
737.00   1.40126497   0.17597851
738.00   1.39451313   0.17669344
739.00   1.38775230   0.17741030
740.00   1.38098251   0.17812908
741.00   1.37420374   0.17884980
742.00   1.36741600   0.17957245
743.00   1.36061929   0.18029703
744.00   1.35381361   0.18102354
745.00   1.34699897   0.18175200
746.00   1.34017535   0.18248240
747.00   1.33334276   0.18321474
748.00   1.32650121   0.18394903
749.00   1.31965069   0.18468527
750.00   1.31279121   0.18542346
751.00   1.30592276   0.18616360
752.00   1.29904535   0.18690570
753.00   1.29215897   0.18764976
754.00   1.28526363   0.18839579
755.00   1.27835933   0.18914377
756.00   1.27144607   0.18989373
757.00   1.26452384   0.19064565
758.00   1.25759266   0.19139955
759.00   1.25065252   0.19215542
760.00   1.24370342   0.19291326
761.00   1.23674536   0.19367309
762.00   1.22977835   0.19443490
763.00   1.22280238   0.19519869
764.00   1.21581746   0.19596447
765.00   1.20882358   0.19673224
766.00   1.20182074   0.19750200
767.00   1.19480896   0.19827376
768.00   1.18778822   0.19904751
769.00   1.18075853   0.19982326
770.00   1.17371989   0.20060102
771.00   1.16667230   0.20138078
772.00   1.15961576   0.20216254
773.00   1.15255027   0.20294632
774.00   1.14547584   0.20373211
775.00   1.13839246   0.20451991
776.00   1.13130013   0.20530973
777.00   1.12419886   0.20610157
778.00   1.11708864   0.20689543
779.00   1.10996948   0.20769132
780.00   1.10284137   0.20848923
781.00   1.09570433   0.20928918
782.00   1.08855834   0.21009115
783.00   1.08140341   0.21089516
784.00   1.07423954   0.21170121
785.00   1.06706673   0.21250930
786.00   1.05988499   0.21331943
787.00   1.05269430   0.21413160
788.00   1.04549468   0.21494582
789.00   1.03828613   0.21576209
790.00   1.03106863   0.21658042
791.00   1.02384221   0.21740079
792.00   1.01660685   0.21822323
793.00   1.00936255   0.21904772
794.00   1.00210933   0.21987428
795.00   0.99484717   0.22070290
796.00   0.98757608   0.22153359
797.00   0.98029607   0.22236635
798.00   0.97300712   0.22320118
799.00   0.96570925   0.22403809
800.00   0.95840244   0.22487707
801.00   0.95108671   0.22571813
802.00   0.94376206   0.22656128
803.00   0.93642848   0.22740651
804.00   0.92908598   0.22825383
805.00   0.92173455   0.22910323
806.00   0.91437420   0.22995473
807.00   0.90700493   0.23080833
808.00   0.89962673   0.23166402
809.00   0.89223962   0.23252181
810.00   0.88484359   0.23338170
811.00   0.87743863   0.23424370
812.00   0.87002476   0.23510780
813.00   0.86260198   0.23597402
814.00   0.85517027   0.23684234
815.00   0.84772965   0.23771278
816.00   0.84028012   0.23858534
817.00   0.83282167   0.23946002
818.00   0.82535431   0.24033682
819.00   0.81787804   0.24121575
820.00   0.81039285   0.24209680
821.00   0.80289876   0.24297998
822.00   0.79539575   0.24386529
823.00   0.78788384   0.24475274
824.00   0.78036301   0.24564233
825.00   0.77283328   0.24653405
826.00   0.76529465   0.24742792
827.00   0.75774710   0.24832393
828.00   0.75019065   0.24922209
829.00   0.74262530   0.25012240
830.00   0.73505104   0.25102486
831.00   0.72746789   0.25192948
832.00   0.71987583   0.25283625
833.00   0.71227486   0.25374518
834.00   0.70466500   0.25465627
835.00   0.69704624   0.25556953
836.00   0.68941858   0.25648496
837.00   0.68178202   0.25740255
838.00   0.67413657   0.25832232
839.00   0.66648222   0.25924426
840.00   0.65881897   0.26016838
841.00   0.65114683   0.26109467
842.00   0.64346580   0.26202315
843.00   0.63577587   0.26295382
844.00   0.62807705   0.26388667
845.00   0.62036934   0.26482171
846.00   0.61265274   0.26575894
847.00   0.60492725   0.26669836
848.00   0.59719288   0.26763999
849.00   0.58944961   0.26858381
850.00   0.58169746   0.26952983
851.00   0.57393642   0.27047806
852.00   0.56616649   0.27142849
853.00   0.55838768   0.27238114
854.00   0.55059999   0.27333599
855.00   0.54280342   0.27429306
856.00   0.53499796   0.27525235
857.00   0.52718362   0.27621385
858.00   0.51936040   0.27717758
859.00   0.51152830   0.27814353
860.00   0.50368733   0.27911171
861.00   0.49583747   0.28008211
862.00   0.48797874   0.28105475
863.00   0.48011113   0.28202962
864.00   0.47223465   0.28300673
865.00   0.46434929   0.28398608
866.00   0.45645506   0.28496766
867.00   0.44855196   0.28595150
868.00   0.44063998   0.28693757
869.00   0.43271913   0.28792590
870.00   0.42478942   0.28891648
871.00   0.41685083   0.28990931
872.00   0.40890338   0.29090440
873.00   0.40094705   0.29190175
874.00   0.39298186   0.29290135
875.00   0.38500781   0.29390322
876.00   0.37702489   0.29490736
877.00   0.36903310   0.29591377
878.00   0.36103246   0.29692245
879.00   0.35302295   0.29793340
880.00   0.34500458   0.29894662
881.00   0.33697734   0.29996213
882.00   0.32894125   0.30097991
883.00   0.32089630   0.30199998
884.00   0.31284249   0.30302234
885.00   0.30477982   0.30404698
886.00   0.29670830   0.30507392
887.00   0.28862792   0.30610314
888.00   0.28053869   0.30713467
889.00   0.27244060   0.30816849
890.00   0.26433366   0.30920461
891.00   0.25621787   0.31024303
892.00   0.24809322   0.31128377
893.00   0.23995973   0.31232680
894.00   0.23181739   0.31337215
895.00   0.22366620   0.31441981
896.00   0.21550616   0.31546979
897.00   0.20733727   0.31652209
898.00   0.19915954   0.31757670
899.00   0.19097296   0.31863364
900.00   0.18277754   0.31969290
901.00   0.17457327   0.32075449
902.00   0.16636016   0.32181842
903.00   0.15813821   0.32288467
904.00   0.14990742   0.32395326
905.00   0.14166779   0.32502419
906.00   0.13341932   0.32609745
907.00   0.12516202   0.32717306
908.00   0.11689587   0.32825101
909.00   0.10862089   0.32933132
910.00   0.10033708   0.33041397
911.00   0.09204443   0.33149897
912.00   0.08374294   0.33258633
913.00   0.07543263   0.33367604
914.00   0.06711348   0.33476812
915.00   0.05878550   0.33586256
916.00   0.05044869   0.33695936
917.00   0.04210305   0.33805853
918.00   0.03374858   0.33916006
919.00   0.02538529   0.34026397
920.00   0.01701317   0.34137026
921.00   0.00863222   0.34247892
922.00   0.00024245   0.34358996
923.00  -0.00815615   0.34470338
924.00  -0.01656357   0.34581919
925.00  -0.02497981   0.34693738
926.00  -0.03340487   0.34805796
927.00  -0.04183875   0.34918093
928.00  -0.05028145   0.35030630
929.00  -0.05873297   0.35143406
930.00  -0.06719331   0.35256423
931.00  -0.07566246   0.35369679
932.00  -0.08414043   0.35483176
933.00  -0.09262721   0.35596913
934.00  -0.10112281   0.35710891
935.00  -0.10962722   0.35825111
936.00  -0.11814044   0.35939571
937.00  -0.12666248   0.36054274
938.00  -0.13519332   0.36169218
939.00  -0.14373297   0.36284404
940.00  -0.15228143   0.36399833
941.00  -0.16083870   0.36515504
942.00  -0.16940478   0.36631418
943.00  -0.17797966   0.36747575
944.00  -0.18656335   0.36863975
945.00  -0.19515584   0.36980619
946.00  -0.20375713   0.37097507
947.00  -0.21236722   0.37214638
948.00  -0.22098612   0.37332014
949.00  -0.22961382   0.37449635
950.00  -0.23825031   0.37567500
951.00  -0.24689560   0.37685610
952.00  -0.25554970   0.37803966
953.00  -0.26421258   0.37922567
954.00  -0.27288427   0.38041414
955.00  -0.28156474   0.38160507
956.00  -0.29025401   0.38279846
957.00  -0.29895208   0.38399431
958.00  -0.30765893   0.38519263
959.00  -0.31637458   0.38639342
960.00  -0.32509902   0.38759669
961.00  -0.33383224   0.38880243
962.00  -0.34257426   0.39001064
963.00  -0.35132506   0.39122134
964.00  -0.36008464   0.39243451
965.00  -0.36885301   0.39365017
966.00  -0.37763017   0.39486832
967.00  -0.38641611   0.39608896
968.00  -0.39521083   0.39731209
969.00  -0.40401434   0.39853771
970.00  -0.41282662   0.39976583
971.00  -0.42164769   0.40099645
972.00  -0.43047753   0.40222956
973.00  -0.43931615   0.40346519
974.00  -0.44816355   0.40470331
975.00  -0.45701972   0.40594395
976.00  -0.46588467   0.40718710
977.00  -0.47475839   0.40843276
978.00  -0.48364088   0.40968094
979.00  -0.49253215   0.41093163
980.00  -0.50143219   0.41218485
981.00  -0.51034100   0.41344059
982.00  -0.51925858   0.41469885
983.00  -0.52818492   0.41595965
984.00  -0.53712004   0.41722297
985.00  -0.54606391   0.41848883
986.00  -0.55501656   0.41975722
987.00  -0.56397797   0.42102815
988.00  -0.57294814   0.42230161
989.00  -0.58192708   0.42357763
990.00  -0.59091477   0.42485618
991.00  -0.59991123   0.42613729
992.00  -0.60891645   0.42742094
993.00  -0.61793043   0.42870714
994.00  -0.62695316   0.42999590
995.00  -0.63598465   0.43128722
996.00  -0.64502490   0.43258110
997.00  -0.65407390   0.43387754
998.00  -0.66313165   0.43517654
999.00  -0.67219816   0.43647811
1000.00  -0.68127342   0.43778225
1001.00  -0.69035743   0.43908896
1002.00  -0.69945019   0.44039824
1003.00  -0.70855171   0.44171010
1004.00  -0.71766196   0.44302454
1005.00  -0.72678097   0.44434156
1006.00  -0.73590872   0.44566116
1007.00  -0.74504522   0.44698335
1008.00  -0.75419046   0.44830813
1009.00  -0.76334444   0.44963550
1010.00  -0.77250717   0.45096546
1011.00  -0.78167864   0.45229802
1012.00  -0.79085884   0.45363318
1013.00  -0.80004779   0.45497093
1014.00  -0.80924548   0.45631129
1015.00  -0.81845190   0.45765426
1016.00  -0.82766706   0.45899983
1017.00  -0.83689095   0.46034801
1018.00  -0.84612358   0.46169881
1019.00  -0.85536495   0.46305222
1020.00  -0.86461504   0.46440825
1021.00  -0.87387387   0.46576689
1022.00  -0.88314142   0.46712816
1023.00  -0.89241771   0.46849206
1024.00  -0.90170273   0.46985858
1025.00  -0.91099647   0.47122773
1026.00  -0.92029894   0.47259951
1027.00  -0.92961013   0.47397393
1028.00  -0.93893005   0.47535098
1029.00  -0.94825869   0.47673067
1030.00  -0.95759606   0.47811300
1031.00  -0.96694214   0.47949798
1032.00  -0.97629695   0.48088560
1033.00  -0.98566048   0.48227588
1034.00  -0.99503272   0.48366880
1035.00  -1.00441369   0.48506437
1036.00  -1.01380337   0.48646261
1037.00  -1.02320176   0.48786350
1038.00  -1.03260887   0.48926705
1039.00  -1.04202469   0.49067326
1040.00  -1.05144923   0.49208214
1041.00  -1.06088248   0.49349369
1042.00  -1.07032443   0.49490791
1043.00  -1.07977510   0.49632479
1044.00  -1.08923448   0.49774436
1045.00  -1.09870256   0.49916660
1046.00  -1.10817935   0.50059152
1047.00  -1.11766485   0.50201913
1048.00  -1.12715905   0.50344942
1049.00  -1.13666195   0.50488239
1050.00  -1.14617356   0.50631806
1051.00  -1.15569387   0.50775641
1052.00  -1.16522287   0.50919747
1053.00  -1.17476058   0.51064121
1054.00  -1.18430699   0.51208766
1055.00  -1.19386209   0.51353681
1056.00  -1.20342589   0.51498866
1057.00  -1.21299839   0.51644322
1058.00  -1.22257958   0.51790048
1059.00  -1.23216946   0.51936046
1060.00  -1.24176803   0.52082315
1061.00  -1.25137530   0.52228855
1062.00  -1.26099126   0.52375668
1063.00  -1.27061590   0.52522752
1064.00  -1.28024924   0.52670109
1065.00  -1.28989126   0.52817738
1066.00  -1.29954197   0.52965640
1067.00  -1.30920136   0.53113815
1068.00  -1.31886944   0.53262263
1069.00  -1.32854620   0.53410985
1070.00  -1.33823164   0.53559981
1071.00  -1.34792577   0.53709250
1072.00  -1.35762857   0.53858794
1073.00  -1.36734005   0.54008612
1074.00  -1.37706021   0.54158704
1075.00  -1.38678905   0.54309072
1076.00  -1.39652657   0.54459714
1077.00  -1.40627275   0.54610633
1078.00  -1.41602762   0.54761826
1079.00  -1.42579115   0.54913296
1080.00  -1.43556336   0.55065041
1081.00  -1.44534424   0.55217063
1082.00  -1.45513379   0.55369362
1083.00  -1.46493200   0.55521937
1084.00  -1.47473889   0.55674790
1085.00  -1.48455444   0.55827920
1086.00  -1.49437865   0.55981327
1087.00  -1.50421153   0.56135012
1088.00  -1.51405308   0.56288975
1089.00  -1.52390328   0.56443216
1090.00  -1.53376215   0.56597736
1091.00  -1.54362968   0.56752534
1092.00  -1.55350587   0.56907611
1093.00  -1.56339071   0.57062968
1094.00  -1.57328421   0.57218604
1095.00  -1.58318637   0.57374519
1096.00  -1.59309719   0.57530715
1097.00  -1.60301666   0.57687191
1098.00  -1.61294478   0.57843947
1099.00  -1.62288155   0.58000983
1100.00  -1.63282697   0.58158301
1101.00  -1.64278105   0.58315899
1102.00  -1.65274377   0.58473779
1103.00  -1.66271514   0.58631940
1104.00  -1.67269516   0.58790384
1105.00  -1.68268382   0.58949109
1106.00  -1.69268113   0.59108116
1107.00  -1.70268708   0.59267406
1108.00  -1.71270167   0.59426979
1109.00  -1.72272491   0.59586835
1110.00  -1.73275678   0.59746974
1111.00  -1.74279729   0.59907396
1112.00  -1.75284645   0.60068102
1113.00  -1.76290424   0.60229092
1114.00  -1.77297066   0.60390366
1115.00  -1.78304572   0.60551925
1116.00  -1.79312941   0.60713768
1117.00  -1.80322174   0.60875896
1118.00  -1.81332270   0.61038309
1119.00  -1.82343229   0.61201007
1120.00  -1.83355051   0.61363991
1121.00  -1.84367736   0.61527261
1122.00  -1.85381283   0.61690817
1123.00  -1.86395693   0.61854659
1124.00  -1.87410966   0.62018788
1125.00  -1.88427101   0.62183203
1126.00  -1.89444098   0.62347905
1127.00  -1.90461958   0.62512895
1128.00  -1.91480680   0.62678172
1129.00  -1.92500264   0.62843737
1130.00  -1.93520709   0.63009590
1131.00  -1.94542017   0.63175730
1132.00  -1.95564186   0.63342160
1133.00  -1.96587216   0.63508878
1134.00  -1.97611108   0.63675884
1135.00  -1.98635862   0.63843180
1136.00  -1.99661477   0.64010765
1137.00  -2.00687952   0.64178640
1138.00  -2.01715289   0.64346805
1139.00  -2.02743487   0.64515260
1140.00  -2.03772546   0.64684004
1141.00  -2.04802465   0.64853040
1142.00  -2.05833245   0.65022366
1143.00  -2.06864885   0.65191983
1144.00  -2.07897386   0.65361892
1145.00  -2.08930747   0.65532092
1146.00  -2.09964968   0.65702583
1147.00  -2.11000049   0.65873367
1148.00  -2.12035990   0.66044442
1149.00  -2.13072791   0.66215810
1150.00  -2.14110451   0.66387471
1151.00  -2.15148972   0.66559424
1152.00  -2.16188351   0.66731671
1153.00  -2.17228590   0.66904211
1154.00  -2.18269689   0.67077044
1155.00  -2.19311646   0.67250172
1156.00  -2.20354463   0.67423593
1157.00  -2.21398138   0.67597309
1158.00  -2.22442673   0.67771319
1159.00  -2.23488066   0.67945624
1160.00  -2.24534317   0.68120223
1161.00  -2.25581428   0.68295118
1162.00  -2.26629396   0.68470309
1163.00  -2.27678223   0.68645795
1164.00  -2.28727908   0.68821577
1165.00  -2.29778451   0.68997655
1166.00  -2.30829852   0.69174030
1167.00  -2.31882111   0.69350701
1168.00  -2.32935227   0.69527669
1169.00  -2.33989202   0.69704934
1170.00  -2.35044033   0.69882496
1171.00  -2.36099722   0.70060356
1172.00  -2.37156269   0.70238514
1173.00  -2.38213672   0.70416969
1174.00  -2.39271933   0.70595723
1175.00  -2.40331051   0.70774776
1176.00  -2.41391025   0.70954127
1177.00  -2.42451856   0.71133777
1178.00  -2.43513544   0.71313726
1179.00  -2.44576088   0.71493975
1180.00  -2.45639489   0.71674523
1181.00  -2.46703745   0.71855371
1182.00  -2.47768858   0.72036519
1183.00  -2.48834827   0.72217968
1184.00  -2.49901652   0.72399717
1185.00  -2.50969333   0.72581767
1186.00  -2.52037870   0.72764118
1187.00  -2.53107262   0.72946770
1188.00  -2.54177510   0.73129724
1189.00  -2.55248613   0.73312979
1190.00  -2.56320571   0.73496537
1191.00  -2.57393384   0.73680396
1192.00  -2.58467053   0.73864558
1193.00  -2.59541576   0.74049023
1194.00  -2.60616954   0.74233790
1195.00  -2.61693187   0.74418861
1196.00  -2.62770275   0.74604235
1197.00  -2.63848217   0.74789913
1198.00  -2.64927013   0.74975894
1199.00  -2.66006663   0.75162180
1200.00  -2.67087168   0.75348770
1201.00  -2.68168527   0.75535664
1202.00  -2.69250739   0.75722863
1203.00  -2.70333806   0.75910367
1204.00  -2.71417726   0.76098177
1205.00  -2.72502499   0.76286291
1206.00  -2.73588126   0.76474712
1207.00  -2.74674606   0.76663438
1208.00  -2.75761940   0.76852470
1209.00  -2.76850127   0.77041809
1210.00  -2.77939166   0.77231455
1211.00  -2.79029059   0.77421407
1212.00  -2.80119804   0.77611666
1213.00  -2.81211402   0.77802233
1214.00  -2.82303852   0.77993107
1215.00  -2.83397155   0.78184289
1216.00  -2.84491310   0.78375778
1217.00  -2.85586318   0.78567577
1218.00  -2.86682177   0.78759683
1219.00  -2.87778888   0.78952098
1220.00  -2.88876451   0.79144822
1221.00  -2.89974866   0.79337856
1222.00  -2.91074133   0.79531198
1223.00  -2.92174251   0.79724850
1224.00  -2.93275220   0.79918813
1225.00  -2.94377041   0.80113085
1226.00  -2.95479712   0.80307667
1227.00  -2.96583235   0.80502560
1228.00  -2.97687609   0.80697764
1229.00  -2.98792833   0.80893278
1230.00  -2.99898908   0.81089104
1231.00  -3.01005834   0.81285242
1232.00  -3.02113610   0.81481691
1233.00  -3.03222237   0.81678452
1234.00  -3.04331713   0.81875525
1235.00  -3.05442040   0.82072910
1236.00  -3.06553217   0.82270608
1237.00  -3.07665243   0.82468619
1238.00  -3.08778120   0.82666943
1239.00  -3.09891846   0.82865580
1240.00  -3.11006421   0.83064531
1241.00  -3.12121846   0.83263795
1242.00  -3.13238120   0.83463373
1243.00  -3.14355243   0.83663266
1244.00  -3.15473216   0.83863473
1245.00  -3.16592037   0.84063995
1246.00  -3.17711707   0.84264831
1247.00  -3.18832226   0.84465983
1248.00  -3.19953593   0.84667450
1249.00  -3.21075809   0.84869233
1250.00  -3.22198873   0.85071331
1251.00  -3.23322785   0.85273746
1252.00  -3.24447546   0.85476476
1253.00  -3.25573154   0.85679524
1254.00  -3.26699610   0.85882888
1255.00  -3.27826914   0.86086569
1256.00  -3.28955066   0.86290567
1257.00  -3.30084065   0.86494882
1258.00  -3.31213912   0.86699515
1259.00  -3.32344606   0.86904466
1260.00  -3.33476147   0.87109736
1261.00  -3.34608535   0.87315323
1262.00  -3.35741769   0.87521229
1263.00  -3.36875851   0.87727454
1264.00  -3.38010779   0.87933998
1265.00  -3.39146554   0.88140861
1266.00  -3.40283176   0.88348043
1267.00  -3.41420643   0.88555545
1268.00  -3.42558957   0.88763368
1269.00  -3.43698117   0.88971510
1270.00  -3.44838123   0.89179973
1271.00  -3.45978975   0.89388756
1272.00  -3.47120672   0.89597860
1273.00  -3.48263216   0.89807285
1274.00  -3.49406604   0.90017031
1275.00  -3.50550838   0.90227099
1276.00  -3.51695917   0.90437489
1277.00  -3.52841842   0.90648201
1278.00  -3.53988611   0.90859235
1279.00  -3.55136225   0.91070591
1280.00  -3.56284684   0.91282270
1281.00  -3.57433988   0.91494272
1282.00  -3.58584136   0.91706597
1283.00  -3.59735128   0.91919245
1284.00  -3.60886965   0.92132217
1285.00  -3.62039646   0.92345513
1286.00  -3.63193171   0.92559133
1287.00  -3.64347540   0.92773077
1288.00  -3.65502752   0.92987345
1289.00  -3.66658809   0.93201938
1290.00  -3.67815709   0.93416856
1291.00  -3.68973452   0.93632099
1292.00  -3.70132039   0.93847668
1293.00  -3.71291469   0.94063562
1294.00  -3.72451742   0.94279782
1295.00  -3.73612857   0.94496328
1296.00  -3.74774816   0.94713201
1297.00  -3.75937618   0.94930400
1298.00  -3.77101261   0.95147925
1299.00  -3.78265748   0.95365778
1300.00  -3.79431077   0.95583958
1301.00  -3.80597248   0.95802465
1302.00  -3.81764261   0.96021300
1303.00  -3.82932116   0.96240463
1304.00  -3.84100813   0.96459954
1305.00  -3.85270352   0.96679773
1306.00  -3.86440732   0.96899921
1307.00  -3.87611954   0.97120397
1308.00  -3.88784017   0.97341203
1309.00  -3.89956921   0.97562337
1310.00  -3.91130666   0.97783802
1311.00  -3.92305253   0.98005596
1312.00  -3.93480680   0.98227719
1313.00  -3.94656948   0.98450173
1314.00  -3.95834057   0.98672958
1315.00  -3.97012006   0.98896072
1316.00  -3.98190796   0.99119518
1317.00  -3.99370426   0.99343295
1318.00  -4.00550896   0.99567403
1319.00  -4.01732206   0.99791842
1320.00  -4.02914355   1.00016614
1321.00  -4.04097345   1.00241717
1322.00  -4.05281174   1.00467152
1323.00  -4.06465843   1.00692920
1324.00  -4.07651351   1.00919020
1325.00  -4.08837699   1.01145453
1326.00  -4.10024885   1.01372219
1327.00  -4.11212911   1.01599319
1328.00  -4.12401775   1.01826752
1329.00  -4.13591479   1.02054518
1330.00  -4.14782021   1.02282619
1331.00  -4.15973401   1.02511054
1332.00  -4.17165620   1.02739823
1333.00  -4.18358677   1.02968927
1334.00  -4.19552572   1.03198366
1335.00  -4.20747306   1.03428140
1336.00  -4.21942877   1.03658249
1337.00  -4.23139286   1.03888694
1338.00  -4.24336532   1.04119474
1339.00  -4.25534616   1.04350590
1340.00  -4.26733538   1.04582043
1341.00  -4.27933297   1.04813832
1342.00  -4.29133893   1.05045958
1343.00  -4.30335326   1.05278420
1344.00  -4.31537596   1.05511220
1345.00  -4.32740702   1.05744357
1346.00  -4.33944646   1.05977832
1347.00  -4.35149425   1.06211644
1348.00  -4.36355042   1.06445794
1349.00  -4.37561494   1.06680283
1350.00  -4.38768783   1.06915110
1351.00  -4.39976907   1.07150275
1352.00  -4.41185868   1.07385780
1353.00  -4.42395664   1.07621624
1354.00  -4.43606296   1.07857807
1355.00  -4.44817764   1.08094329
1356.00  -4.46030067   1.08331192
1357.00  -4.47243205   1.08568394
1358.00  -4.48457178   1.08805936
1359.00  -4.49671986   1.09043819
1360.00  -4.50887630   1.09282043
1361.00  -4.52104107   1.09520608
1362.00  -4.53321420   1.09759513
1363.00  -4.54539567   1.09998760
1364.00  -4.55758549   1.10238349
1365.00  -4.56978364   1.10478279
1366.00  -4.58199014   1.10718552
1367.00  -4.59420498   1.10959166
1368.00  -4.60642816   1.11200123
1369.00  -4.61865967   1.11441423
1370.00  -4.63089952   1.11683066
1371.00  -4.64314770   1.11925052
1372.00  -4.65540422   1.12167381
1373.00  -4.66766907   1.12410054
1374.00  -4.67994226   1.12653070
1375.00  -4.69222377   1.12896431
1376.00  -4.70451361   1.13140135
1377.00  -4.71681178   1.13384184
1378.00  -4.72911827   1.13628578
1379.00  -4.74143309   1.13873317
1380.00  -4.75375623   1.14118401
1381.00  -4.76608769   1.14363830
1382.00  -4.77842748   1.14609605
1383.00  -4.79077558   1.14855725
1384.00  -4.80313200   1.15102192
1385.00  -4.81549674   1.15349005
1386.00  -4.82786980   1.15596164
1387.00  -4.84025117   1.15843670
1388.00  -4.85264085   1.16091523
1389.00  -4.86503884   1.16339723
1390.00  -4.87744515   1.16588270
1391.00  -4.88985976   1.16837165
1392.00  -4.90228268   1.17086407
1393.00  -4.91471391   1.17335998
1394.00  -4.92715344   1.17585937
1395.00  -4.93960128   1.17836224
1396.00  -4.95205742   1.18086860
1397.00  -4.96452186   1.18337845
1398.00  -4.97699460   1.18589179
1399.00  -4.98947565   1.18840862
1400.00  -5.00196498   1.19092895
1401.00  -5.01446262   1.19345277
1402.00  -5.02696855   1.19598010
1403.00  -5.03948277   1.19851092
1404.00  -5.05200529   1.20104525
1405.00  -5.06453609   1.20358309
1406.00  -5.07707519   1.20612444
1407.00  -5.08962258   1.20866930
1408.00  -5.10217825   1.21121767
1409.00  -5.11474221   1.21376955
1410.00  -5.12731445   1.21632495
1411.00  -5.13989497   1.21888388
1412.00  -5.15248378   1.22144632
1413.00  -5.16508087   1.22401229
1414.00  -5.17768624   1.22658178
1415.00  -5.19029988   1.22915481
1416.00  -5.20292181   1.23173136
1417.00  -5.21555201   1.23431145
1418.00  -5.22819048   1.23689507
1419.00  -5.24083722   1.23948223
1420.00  -5.25349224   1.24207293
1421.00  -5.26615553   1.24466717
1422.00  -5.27882708   1.24726495
1423.00  -5.29150690   1.24986628
1424.00  -5.30419499   1.25247116
1425.00  -5.31689135   1.25507959
1426.00  -5.32959597   1.25769157
1427.00  -5.34230885   1.26030710
1428.00  -5.35502999   1.26292620
1429.00  -5.36775939   1.26554885
1430.00  -5.38049705   1.26817506
1431.00  -5.39324296   1.27080484
1432.00  -5.40599713   1.27343818
1433.00  -5.41875956   1.27607509
1434.00  -5.43153024   1.27871557
1435.00  -5.44430917   1.28135962
1436.00  -5.45709635   1.28400725
1437.00  -5.46989178   1.28665845
1438.00  -5.48269546   1.28931323
1439.00  -5.49550738   1.29197160
1440.00  -5.50832755   1.29463354
1441.00  -5.52115597   1.29729907
1442.00  -5.53399262   1.29996819
1443.00  -5.54683752   1.30264090
1444.00  -5.55969066   1.30531720
1445.00  -5.57255203   1.30799710
1446.00  -5.58542164   1.31068059
1447.00  -5.59829949   1.31336768
1448.00  -5.61118557   1.31605837
1449.00  -5.62407989   1.31875266
1450.00  -5.63698244   1.32145056
1451.00  -5.64989321   1.32415206
1452.00  -5.66281222   1.32685718
1453.00  -5.67573946   1.32956590
1454.00  -5.68867492   1.33227824
1455.00  -5.70161860   1.33499420
1456.00  -5.71457051   1.33771377
1457.00  -5.72753065   1.34043696
1458.00  -5.74049900   1.34316378
1459.00  -5.75347557   1.34589422
1460.00  -5.76646036   1.34862829
1461.00  -5.77945337   1.35136598
1462.00  -5.79245460   1.35410731
1463.00  -5.80546404   1.35685227
1464.00  -5.81848169   1.35960086
1465.00  -5.83150755   1.36235309
1466.00  -5.84454163   1.36510897
1467.00  -5.85758391   1.36786848
1468.00  -5.87063440   1.37063164
1469.00  -5.88369310   1.37339844
1470.00  -5.89676000   1.37616889
1471.00  -5.90983510   1.37894300
1472.00  -5.92291841   1.38172075
1473.00  -5.93600992   1.38450216
1474.00  -5.94910963   1.38728723
1475.00  -5.96221753   1.39007596
1476.00  -5.97533364   1.39286834
1477.00  -5.98845793   1.39566440
1478.00  -6.00159043   1.39846411
1479.00  -6.01473111   1.40126750
1480.00  -6.02787999   1.40407455
1481.00  -6.04103706   1.40688528
1482.00  -6.05420231   1.40969968
1483.00  -6.06737575   1.41251776
1484.00  -6.08055738   1.41533951
1485.00  -6.09374720   1.41816495
1486.00  -6.10694519   1.42099407
1487.00  -6.12015137   1.42382687
1488.00  -6.13336573   1.42666336
1489.00  -6.14658827   1.42950354
1490.00  -6.15981898   1.43234741
1491.00  -6.17305788   1.43519498
1492.00  -6.18630494   1.43804624
1493.00  -6.19956019   1.44090120
1494.00  -6.21282360   1.44375986
1495.00  -6.22609518   1.44662222
1496.00  -6.23937494   1.44948829
1497.00  -6.25266286   1.45235806
1498.00  -6.26595895   1.45523154
1499.00  -6.27926321   1.45810873
1500.00  -6.29257562   1.46098964
1501.00  -6.30589621   1.46387426
1502.00  -6.31922495   1.46676259
1503.00  -6.33256185   1.46965465
1504.00  -6.34590691   1.47255043
1505.00  -6.35926013   1.47544993
1506.00  -6.37262151   1.47835316
1507.00  -6.38599104   1.48126011
1508.00  -6.39936872   1.48417080
1509.00  -6.41275455   1.48708521
1510.00  -6.42614854   1.49000336
1511.00  -6.43955067   1.49292525
1512.00  -6.45296095   1.49585088
1513.00  -6.46637938   1.49878025
1514.00  -6.47980595   1.50171336
1515.00  -6.49324067   1.50465021
1516.00  -6.50668353   1.50759081
1517.00  -6.52013453   1.51053517
1518.00  -6.53359366   1.51348327
1519.00  -6.54706094   1.51643513
1520.00  -6.56053635   1.51939074
1521.00  -6.57401990   1.52235011
1522.00  -6.58751158   1.52531324
1523.00  -6.60101139   1.52828013
1524.00  -6.61451934   1.53125079
1525.00  -6.62803541   1.53422521
1526.00  -6.64155962   1.53720340
1527.00  -6.65509195   1.54018536
1528.00  -6.66863240   1.54317110
1529.00  -6.68218098   1.54616061
1530.00  -6.69573768   1.54915389
1531.00  -6.70930250   1.55215096
1532.00  -6.72287545   1.55515180
1533.00  -6.73645651   1.55815643
1534.00  -6.75004569   1.56116485
1535.00  -6.76364298   1.56417705
1536.00  -6.77724839   1.56719304
1537.00  -6.79086191   1.57021283
1538.00  -6.80448354   1.57323641
1539.00  -6.81811328   1.57626378
1540.00  -6.83175114   1.57929495
1541.00  -6.84539709   1.58232993
1542.00  -6.85905116   1.58536870
1543.00  -6.87271333   1.58841128
1544.00  -6.88638360   1.59145767
1545.00  -6.90006197   1.59450786
1546.00  -6.91374845   1.59756187
1547.00  -6.92744302   1.60061969
1548.00  -6.94114569   1.60368132
1549.00  -6.95485646   1.60674677
1550.00  -6.96857532   1.60981604
1551.00  -6.98230227   1.61288914
1552.00  -6.99603732   1.61596605
1553.00  -7.00978046   1.61904679
1554.00  -7.02353168   1.62213136
1555.00  -7.03729099   1.62521976
1556.00  -7.05105839   1.62831199
1557.00  -7.06483388   1.63140806
1558.00  -7.07861745   1.63450796
1559.00  -7.09240910   1.63761170
1560.00  -7.10620883   1.64071928
1561.00  -7.12001663   1.64383070
1562.00  -7.13383252   1.64694597
1563.00  -7.14765648   1.65006508
1564.00  -7.16148852   1.65318804
1565.00  -7.17532863   1.65631486
1566.00  -7.18917682   1.65944552
1567.00  -7.20303307   1.66258005
1568.00  -7.21689739   1.66571842
1569.00  -7.23076979   1.66886066
1570.00  -7.24465024   1.67200676
1571.00  -7.25853876   1.67515673
1572.00  -7.27243535   1.67831055
1573.00  -7.28634000   1.68146825
1574.00  -7.30025271   1.68462982
1575.00  -7.31417347   1.68779526
1576.00  -7.32810230   1.69096457
1577.00  -7.34203918   1.69413776
1578.00  -7.35598412   1.69731482
1579.00  -7.36993711   1.70049577
1580.00  -7.38389815   1.70368060
1581.00  -7.39786725   1.70686932
1582.00  -7.41184439   1.71006192
1583.00  -7.42582958   1.71325841
1584.00  -7.43982281   1.71645879
1585.00  -7.45382410   1.71966306
1586.00  -7.46783342   1.72287123
1587.00  -7.48185079   1.72608329
1588.00  -7.49587620   1.72929926
1589.00  -7.50990964   1.73251912
1590.00  -7.52395113   1.73574289
1591.00  -7.53800065   1.73897056
1592.00  -7.55205821   1.74220214
1593.00  -7.56612380   1.74543764
1594.00  -7.58019742   1.74867704
1595.00  -7.59427907   1.75192035
1596.00  -7.60836875   1.75516759
1597.00  -7.62246646   1.75841874
1598.00  -7.63657219   1.76167381
1599.00  -7.65068595   1.76493280
1600.00  -7.66480774   1.76819571
1601.00  -7.67893754   1.77146256
1602.00  -7.69307537   1.77473333
1603.00  -7.70722121   1.77800803
1604.00  -7.72137508   1.78128666
1605.00  -7.73553696   1.78456923
1606.00  -7.74970685   1.78785573
1607.00  -7.76388476   1.79114618
1608.00  -7.77807068   1.79444056
1609.00  -7.79226460   1.79773889
1610.00  -7.80646654   1.80104116
1611.00  -7.82067649   1.80434738
1612.00  -7.83489444   1.80765755
1613.00  -7.84912039   1.81097167
1614.00  -7.86335435   1.81428974
1615.00  -7.87759631   1.81761176
1616.00  -7.89184628   1.82093775
1617.00  -7.90610424   1.82426769
1618.00  -7.92037019   1.82760160
1619.00  -7.93464415   1.83093947
1620.00  -7.94892609   1.83428130
1621.00  -7.96321603   1.83762710
1622.00  -7.97751396   1.84097688
1623.00  -7.99181989   1.84433062
1624.00  -8.00613380   1.84768834
1625.00  -8.02045569   1.85105003
1626.00  -8.03478558   1.85441570
1627.00  -8.04912344   1.85778535
1628.00  -8.06346929   1.86115899
1629.00  -8.07782312   1.86453660
1630.00  -8.09218494   1.86791821
1631.00  -8.10655472   1.87130380
1632.00  -8.12093249   1.87469338
1633.00  -8.13531823   1.87808696
1634.00  -8.14971195   1.88148453
1635.00  -8.16411364   1.88488609
1636.00  -8.17852329   1.88829166
1637.00  -8.19294092   1.89170122
1638.00  -8.20736652   1.89511479
1639.00  -8.22180008   1.89853236
1640.00  -8.23624161   1.90195394
1641.00  -8.25069110   1.90537953
1642.00  -8.26514856   1.90880913
1643.00  -8.27961397   1.91224274
1644.00  -8.29408735   1.91568037
1645.00  -8.30856868   1.91912201
1646.00  -8.32305797   1.92256767
1647.00  -8.33755521   1.92601736
1648.00  -8.35206040   1.92947107
1649.00  -8.36657355   1.93292880
1650.00  -8.38109465   1.93639056
1651.00  -8.39562370   1.93985635
1652.00  -8.41016069   1.94332617
1653.00  -8.42470563   1.94680002
1654.00  -8.43925852   1.95027791
1655.00  -8.45381935   1.95375984
1656.00  -8.46838812   1.95724581
1657.00  -8.48296483   1.96073581
1658.00  -8.49754948   1.96422987
1659.00  -8.51214206   1.96772796
1660.00  -8.52674258   1.97123011
1661.00  -8.54135104   1.97473630
1662.00  -8.55596742   1.97824655
1663.00  -8.57059174   1.98176085
1664.00  -8.58522399   1.98527921
1665.00  -8.59986417   1.98880162
1666.00  -8.61451227   1.99232810
1667.00  -8.62916830   1.99585863
1668.00  -8.64383225   1.99939323
1669.00  -8.65850413   2.00293190
1670.00  -8.67318392   2.00647463
1671.00  -8.68787164   2.01002144
1672.00  -8.70256727   2.01357231
1673.00  -8.71727082   2.01712726
1674.00  -8.73198228   2.02068629
1675.00  -8.74670166   2.02424940
1676.00  -8.76142894   2.02781658
1677.00  -8.77616414   2.03138785
1678.00  -8.79090725   2.03496320
1679.00  -8.80565826   2.03854264
1680.00  -8.82041718   2.04212617
1681.00  -8.83518401   2.04571378
1682.00  -8.84995874   2.04930549
1683.00  -8.86474136   2.05290130
1684.00  -8.87953189   2.05650120
1685.00  -8.89433032   2.06010520
1686.00  -8.90913664   2.06371330
1687.00  -8.92395086   2.06732550
1688.00  -8.93877297   2.07094181
1689.00  -8.95360298   2.07456222
1690.00  -8.96844087   2.07818674
1691.00  -8.98328666   2.08181537
1692.00  -8.99814033   2.08544812
1693.00  -9.01300189   2.08908498
1694.00  -9.02787133   2.09272596
1695.00  -9.04274866   2.09637105
1696.00  -9.05763387   2.10002027
1697.00  -9.07252696   2.10367361
1698.00  -9.08742792   2.10733107
1699.00  -9.10233677   2.11099266
1700.00  -9.11725349   2.11465838
1701.00  -9.13217808   2.11832823
1702.00  -9.14711055   2.12200221
1703.00  -9.16205089   2.12568033
1704.00  -9.17699910   2.12936258
1705.00  -9.19195517   2.13304897
1706.00  -9.20691911   2.13673951
1707.00  -9.22189092   2.14043418
1708.00  -9.23687059   2.14413300
1709.00  -9.25185813   2.14783597
1710.00  -9.26685352   2.15154309
1711.00  -9.28185677   2.15525436
1712.00  -9.29686789   2.15896978
1713.00  -9.31188685   2.16268935
1714.00  -9.32691367   2.16641309
1715.00  -9.34194835   2.17014098
1716.00  -9.35699087   2.17387303
1717.00  -9.37204125   2.17760925
1718.00  -9.38709947   2.18134963
1719.00  -9.40216554   2.18509417
1720.00  -9.41723946   2.18884289
1721.00  -9.43232122   2.19259577
1722.00  -9.44741082   2.19635283
1723.00  -9.46250826   2.20011407
1724.00  -9.47761355   2.20387948
1725.00  -9.49272667   2.20764907
1726.00  -9.50784762   2.21142284
1727.00  -9.52297641   2.21520079
1728.00  -9.53811304   2.21898293
1729.00  -9.55325749   2.22276926
1730.00  -9.56840978   2.22655977
1731.00  -9.58356989   2.23035448
1732.00  -9.59873784   2.23415338
1733.00  -9.61391360   2.23795647
1734.00  -9.62909719   2.24176376
1735.00  -9.64428861   2.24557525
1736.00  -9.65948784   2.24939094
1737.00  -9.67469489   2.25321083
1738.00  -9.68990977   2.25703492
1739.00  -9.70513245   2.26086323
1740.00  -9.72036296   2.26469574
1741.00  -9.73560127   2.26853246
1742.00  -9.75084740   2.27237340
1743.00  -9.76610134   2.27621855
1744.00  -9.78136308   2.28006791
1745.00  -9.79663264   2.28392150
1746.00  -9.81190999   2.28777930
1747.00  -9.82719516   2.29164133
1748.00  -9.84248812   2.29550759
1749.00  -9.85778889   2.29937807
1750.00  -9.87309745   2.30325277
1751.00  -9.88841382   2.30713171
1752.00  -9.90373798   2.31101488
1753.00  -9.91906993   2.31490229
1754.00  -9.93440968   2.31879393
1755.00  -9.94975722   2.32268981
1756.00  -9.96511255   2.32658993
1757.00  -9.98047567   2.33049430
1758.00  -9.99584657   2.33440290
1759.00 -10.01122526   2.33831576
1760.00 -10.02661173   2.34223286
1761.00 -10.04200599   2.34615421
1762.00 -10.05740803   2.35007982
1763.00 -10.07281785   2.35400968
1764.00 -10.08823544   2.35794379
1765.00 -10.10366081   2.36188216
1766.00 -10.11909395   2.36582480
1767.00 -10.13453487   2.36977169
1768.00 -10.14998356   2.37372285
1769.00 -10.16544002   2.37767828
1770.00 -10.18090425   2.38163797
1771.00 -10.19637624   2.38560193
1772.00 -10.21185600   2.38957017
1773.00 -10.22734353   2.39354268
1774.00 -10.24283881   2.39751946
1775.00 -10.25834186   2.40150052
1776.00 -10.27385267   2.40548587
1777.00 -10.28937123   2.40947549
1778.00 -10.30489755   2.41346940
1779.00 -10.32043162   2.41746759
1780.00 -10.33597345   2.42147007
1781.00 -10.35152302   2.42547684
1782.00 -10.36708035   2.42948790
1783.00 -10.38264543   2.43350326
1784.00 -10.39821825   2.43752291
1785.00 -10.41379882   2.44154685
1786.00 -10.42938713   2.44557510
1787.00 -10.44498318   2.44960765
1788.00 -10.46058697   2.45364450
1789.00 -10.47619850   2.45768566
1790.00 -10.49181777   2.46173112
1791.00 -10.50744477   2.46578089
1792.00 -10.52307951   2.46983498
1793.00 -10.53872198   2.47389337
1794.00 -10.55437218   2.47795609
1795.00 -10.57003011   2.48202311
1796.00 -10.58569577   2.48609446
1797.00 -10.60136915   2.49017013
1798.00 -10.61705026   2.49425012
1799.00 -10.63273909   2.49833443
1800.00 -10.64843565   2.50242308
1801.00 -10.66413992   2.50651605
1802.00 -10.67985191   2.51061335
1803.00 -10.69557162   2.51471498
1804.00 -10.71129904   2.51882095
1805.00 -10.72703418   2.52293125
1806.00 -10.74277703   2.52704589
1807.00 -10.75852758   2.53116487
1808.00 -10.77428585   2.53528820
1809.00 -10.79005183   2.53941587
1810.00 -10.80582551   2.54354788
1811.00 -10.82160689   2.54768424
1812.00 -10.83739598   2.55182495
1813.00 -10.85319277   2.55597002
1814.00 -10.86899726   2.56011943
1815.00 -10.88480944   2.56427321
1816.00 -10.90062932   2.56843134
1817.00 -10.91645690   2.57259383
1818.00 -10.93229217   2.57676068
1819.00 -10.94813513   2.58093189
1820.00 -10.96398578   2.58510747
1821.00 -10.97984412   2.58928742
1822.00 -10.99571014   2.59347173
1823.00 -11.01158385   2.59766042
1824.00 -11.02746525   2.60185348
1825.00 -11.04335432   2.60605092
1826.00 -11.05925108   2.61025273
1827.00 -11.07515551   2.61445892
1828.00 -11.09106762   2.61866949
1829.00 -11.10698741   2.62288444
1830.00 -11.12291487   2.62710378
1831.00 -11.13885000   2.63132751
1832.00 -11.15479281   2.63555562
1833.00 -11.17074328   2.63978812
1834.00 -11.18670142   2.64402502
1835.00 -11.20266723   2.64826631
1836.00 -11.21864070   2.65251200
1837.00 -11.23462183   2.65676208
1838.00 -11.25061063   2.66101656
1839.00 -11.26660708   2.66527545
1840.00 -11.28261120   2.66953874
1841.00 -11.29862297   2.67380643
1842.00 -11.31464239   2.67807854
1843.00 -11.33066947   2.68235505
1844.00 -11.34670420   2.68663597
1845.00 -11.36274657   2.69092131
1846.00 -11.37879660   2.69521106
1847.00 -11.39485427   2.69950523
1848.00 -11.41091959   2.70380381
1849.00 -11.42699256   2.70810682
1850.00 -11.44307316   2.71241425
1851.00 -11.45916140   2.71672611
1852.00 -11.47525729   2.72104239
1853.00 -11.49136081   2.72536310
1854.00 -11.50747196   2.72968825
1855.00 -11.52359075   2.73401782
1856.00 -11.53971718   2.73835183
1857.00 -11.55585123   2.74269027
1858.00 -11.57199291   2.74703316
1859.00 -11.58814222   2.75138048
1860.00 -11.60429916   2.75573224
1861.00 -11.62046372   2.76008845
1862.00 -11.63663590   2.76444910
1863.00 -11.65281570   2.76881421
1864.00 -11.66900312   2.77318376
1865.00 -11.68519816   2.77755776
1866.00 -11.70140082   2.78193621
1867.00 -11.71761109   2.78631912
1868.00 -11.73382898   2.79070649
1869.00 -11.75005447   2.79509832
1870.00 -11.76628758   2.79949460
1871.00 -11.78252829   2.80389535
1872.00 -11.79877661   2.80830057
1873.00 -11.81503253   2.81271025
1874.00 -11.83129606   2.81712440
1875.00 -11.84756719   2.82154302
1876.00 -11.86384592   2.82596611
1877.00 -11.88013225   2.83039368
1878.00 -11.89642618   2.83482572
1879.00 -11.91272770   2.83926224
1880.00 -11.92903681   2.84370324
1881.00 -11.94535351   2.84814872
1882.00 -11.96167781   2.85259868
1883.00 -11.97800969   2.85705313
1884.00 -11.99434917   2.86151207
1885.00 -12.01069622   2.86597549
1886.00 -12.02705086   2.87044341
1887.00 -12.04341309   2.87491582
1888.00 -12.05978289   2.87939272
1889.00 -12.07616027   2.88387413
1890.00 -12.09254523   2.88836002
1891.00 -12.10893777   2.89285043
1892.00 -12.12533788   2.89734533
1893.00 -12.14174556   2.90184473
1894.00 -12.15816081   2.90634865
1895.00 -12.17458363   2.91085707
1896.00 -12.19101402   2.91537000
1897.00 -12.20745198   2.91988744
1898.00 -12.22389749   2.92440939
1899.00 -12.24035058   2.92893587
1900.00 -12.25681122   2.93346685
1901.00 -12.27327942   2.93800236
1902.00 -12.28975518   2.94254239
1903.00 -12.30623850   2.94708694
1904.00 -12.32272937   2.95163602
1905.00 -12.33922779   2.95618962
1906.00 -12.35573376   2.96074775
1907.00 -12.37224729   2.96531041
1908.00 -12.38876836   2.96987760
1909.00 -12.40529698   2.97444933
1910.00 -12.42183314   2.97902560
1911.00 -12.43837684   2.98360640
1912.00 -12.45492809   2.98819174
1913.00 -12.47148687   2.99278162
1914.00 -12.48805320   2.99737605
1915.00 -12.50462706   3.00197502
1916.00 -12.52120845   3.00657854
1917.00 -12.53779738   3.01118660
1918.00 -12.55439384   3.01579922
1919.00 -12.57099783   3.02041639
1920.00 -12.58760935   3.02503812
1921.00 -12.60422839   3.02966440
1922.00 -12.62085496   3.03429524
1923.00 -12.63748906   3.03893064
1924.00 -12.65413067   3.04357060
1925.00 -12.67077980   3.04821513
1926.00 -12.68743646   3.05286422
1927.00 -12.70410062   3.05751788
1928.00 -12.72077231   3.06217611
1929.00 -12.73745150   3.06683891
1930.00 -12.75413821   3.07150628
1931.00 -12.77083243   3.07617823
1932.00 -12.78753416   3.08085475
1933.00 -12.80424339   3.08553585
1934.00 -12.82096013   3.09022154
1935.00 -12.83768437   3.09491180
1936.00 -12.85441612   3.09960665
1937.00 -12.87115536   3.10430609
1938.00 -12.88790210   3.10901011
1939.00 -12.90465634   3.11371873
1940.00 -12.92141808   3.11843193
1941.00 -12.93818730   3.12314973
1942.00 -12.95496402   3.12787212
1943.00 -12.97174823   3.13259911
1944.00 -12.98853993   3.13733070
1945.00 -13.00533912   3.14206689
1946.00 -13.02214579   3.14680768
1947.00 -13.03895994   3.15155308
1948.00 -13.05578158   3.15630308
1949.00 -13.07261069   3.16105770
1950.00 -13.08944729   3.16581692
1951.00 -13.10629136   3.17058075
1952.00 -13.12314290   3.17534920
1953.00 -13.14000192   3.18012226
1954.00 -13.15686841   3.18489994
1955.00 -13.17374238   3.18968224
1956.00 -13.19062381   3.19446915
1957.00 -13.20751270   3.19926070
1958.00 -13.22440907   3.20405686
1959.00 -13.24131289   3.20885766
1960.00 -13.25822418   3.21366308
1961.00 -13.27514293   3.21847313
1962.00 -13.29206913   3.22328781
1963.00 -13.30900280   3.22810713
1964.00 -13.32594391   3.23293108
1965.00 -13.34289249   3.23775967
1966.00 -13.35984851   3.24259290
1967.00 -13.37681198   3.24743077
1968.00 -13.39378291   3.25227328
1969.00 -13.41076128   3.25712043
1970.00 -13.42774709   3.26197224
1971.00 -13.44474035   3.26682869
1972.00 -13.46174105   3.27168979
1973.00 -13.47874919   3.27655554
1974.00 -13.49576477   3.28142595
1975.00 -13.51278778   3.28630101
1976.00 -13.52981823   3.29118073
1977.00 -13.54685611   3.29606511
1978.00 -13.56390143   3.30095415
1979.00 -13.58095417   3.30584786
1980.00 -13.59801435   3.31074622
1981.00 -13.61508195   3.31564926
1982.00 -13.63215697   3.32055696
1983.00 -13.64923942   3.32546933
1984.00 -13.66632929   3.33038638
1985.00 -13.68342658   3.33530809
1986.00 -13.70053129   3.34023449
1987.00 -13.71764342   3.34516556
1988.00 -13.73476296   3.35010131
1989.00 -13.75188991   3.35504174
1990.00 -13.76902427   3.35998685
1991.00 -13.78616605   3.36493665
1992.00 -13.80331523   3.36989113
1993.00 -13.82047182   3.37485030
1994.00 -13.83763581   3.37981416
1995.00 -13.85480721   3.38478272
1996.00 -13.87198601   3.38975596
1997.00 -13.88917221   3.39473391
1998.00 -13.90636580   3.39971654
1999.00 -13.92356680   3.40470388
2000.00 -13.94077518   3.40969592
