wavelength(nm)         real         imag
200.00   3.72646941   0.00331648
201.00   3.72473040   0.00336647
202.00   3.72298274   0.00341695
203.00   3.72122642   0.00346794
204.00   3.71946143   0.00351943
205.00   3.71768779   0.00357143
206.00   3.71590549   0.00362393
207.00   3.71411452   0.00367695
208.00   3.71231490   0.00373048
209.00   3.71050662   0.00378453
210.00   3.70868968   0.00383910
211.00   3.70686408   0.00389419
212.00   3.70502982   0.00394981
213.00   3.70318691   0.00400595
214.00   3.70133533   0.00406262
215.00   3.69947510   0.00411982
216.00   3.69760621   0.00417756
217.00   3.69572866   0.00423584
218.00   3.69384246   0.00429465
219.00   3.69194760   0.00435400
220.00   3.69004408   0.00441390
221.00   3.68813190   0.00447435
222.00   3.68621107   0.00453534
223.00   3.68428158   0.00459689
224.00   3.68234344   0.00465899
225.00   3.68039664   0.00472165
226.00   3.67844118   0.00478486
227.00   3.67647707   0.00484864
228.00   3.67450431   0.00491298
229.00   3.67252289   0.00497789
230.00   3.67053281   0.00504336
231.00   3.66853408   0.00510941
232.00   3.66652669   0.00517603
233.00   3.66451065   0.00524323
234.00   3.66248596   0.00531101
235.00   3.66045261   0.00537937
236.00   3.65841061   0.00544831
237.00   3.65635996   0.00551784
238.00   3.65430065   0.00558795
239.00   3.65223269   0.00565866
240.00   3.65015608   0.00572996
241.00   3.64807082   0.00580186
242.00   3.64597690   0.00587436
243.00   3.64387433   0.00594746
244.00   3.64176311   0.00602116
245.00   3.63964324   0.00609547
246.00   3.63751472   0.00617038
247.00   3.63537755   0.00624591
248.00   3.63323172   0.00632205
249.00   3.63107725   0.00639880
250.00   3.62891412   0.00647618
251.00   3.62674235   0.00655417
252.00   3.62456192   0.00663279
253.00   3.62237285   0.00671204
254.00   3.62017512   0.00679191
255.00   3.61796875   0.00687241
256.00   3.61575373   0.00695355
257.00   3.61353006   0.00703532
258.00   3.61129774   0.00711774
259.00   3.60905678   0.00720079
260.00   3.60680716   0.00728448
261.00   3.60454890   0.00736882
262.00   3.60228199   0.00745381
263.00   3.60000643   0.00753945
264.00   3.59772223   0.00762574
265.00   3.59542938   0.00771269
266.00   3.59312788   0.00780029
267.00   3.59081774   0.00788856
268.00   3.58849895   0.00797749
269.00   3.58617152   0.00806708
270.00   3.58383544   0.00815735
271.00   3.58149072   0.00824828
272.00   3.57913735   0.00833988
273.00   3.57677533   0.00843216
274.00   3.57440468   0.00852512
275.00   3.57202537   0.00861876
276.00   3.56963743   0.00871308
277.00   3.56724084   0.00880809
278.00   3.56483561   0.00890378
279.00   3.56242173   0.00900017
280.00   3.55999921   0.00909724
281.00   3.55756805   0.00919502
282.00   3.55512825   0.00929349
283.00   3.55267980   0.00939266
284.00   3.55022272   0.00949253
285.00   3.54775699   0.00959310
286.00   3.54528262   0.00969439
287.00   3.54279961   0.00979638
288.00   3.54030796   0.00989909
289.00   3.53780767   0.01000251
290.00   3.53529874   0.01010665
291.00   3.53278117   0.01021151
292.00   3.53025495   0.01031709
293.00   3.52772011   0.01042339
294.00   3.52517662   0.01053043
295.00   3.52262449   0.01063819
296.00   3.52006372   0.01074668
297.00   3.51749432   0.01085591
298.00   3.51491628   0.01096588
299.00   3.51232960   0.01107658
300.00   3.50973428   0.01118803
301.00   3.50713033   0.01130022
302.00   3.50451774   0.01141316
303.00   3.50189651   0.01152685
304.00   3.49926665   0.01164129
305.00   3.49662815   0.01175648
306.00   3.49398102   0.01187243
307.00   3.49132525   0.01198914
308.00   3.48866084   0.01210661
309.00   3.48598780   0.01222485
310.00   3.48330613   0.01234385
311.00   3.48061582   0.01246362
312.00   3.47791688   0.01258417
313.00   3.47520931   0.01270549
314.00   3.47249310   0.01282758
315.00   3.46976826   0.01295045
316.00   3.46703479   0.01307411
317.00   3.46429268   0.01319854
318.00   3.46154194   0.01332377
319.00   3.45878257   0.01344978
320.00   3.45601457   0.01357659
321.00   3.45323794   0.01370419
322.00   3.45045268   0.01383258
323.00   3.44765878   0.01396177
324.00   3.44485626   0.01409177
325.00   3.44204511   0.01422257
326.00   3.43922532   0.01435417
327.00   3.43639691   0.01448658
328.00   3.43355987   0.01461981
329.00   3.43071420   0.01475385
330.00   3.42785990   0.01488870
331.00   3.42499697   0.01502437
332.00   3.42212542   0.01516086
333.00   3.41924524   0.01529818
334.00   3.41635643   0.01543632
335.00   3.41345899   0.01557529
336.00   3.41055293   0.01571509
337.00   3.40763824   0.01585573
338.00   3.40471493   0.01599720
339.00   3.40178299   0.01613950
340.00   3.39884243   0.01628265
341.00   3.39589324   0.01642664
342.00   3.39293542   0.01657148
343.00   3.38996898   0.01671717
344.00   3.38699392   0.01686370
345.00   3.38401024   0.01701109
346.00   3.38101793   0.01715933
347.00   3.37801700   0.01730843
348.00   3.37500744   0.01745840
349.00   3.37198926   0.01760922
350.00   3.36896247   0.01776091
351.00   3.36592704   0.01791347
352.00   3.36288300   0.01806689
353.00   3.35983034   0.01822119
354.00   3.35676906   0.01837637
355.00   3.35369915   0.01853242
356.00   3.35062063   0.01868935
357.00   3.34753349   0.01884717
358.00   3.34443773   0.01900587
359.00   3.34133334   0.01916545
360.00   3.33822034   0.01932593
361.00   3.33509873   0.01948730
362.00   3.33196849   0.01964956
363.00   3.32882964   0.01981273
364.00   3.32568217   0.01997679
365.00   3.32252608   0.02014175
366.00   3.31936138   0.02030762
367.00   3.31618805   0.02047439
368.00   3.31300612   0.02064207
369.00   3.30981557   0.02081067
370.00   3.30661640   0.02098018
371.00   3.30340862   0.02115061
372.00   3.30019222   0.02132195
373.00   3.29696721   0.02149422
374.00   3.29373359   0.02166741
375.00   3.29049135   0.02184153
376.00   3.28724050   0.02201658
377.00   3.28398104   0.02219256
378.00   3.28071296   0.02236947
379.00   3.27743628   0.02254732
380.00   3.27415098   0.02272611
381.00   3.27085707   0.02290584
382.00   3.26755455   0.02308651
383.00   3.26424341   0.02326814
384.00   3.26092367   0.02345070
385.00   3.25759532   0.02363422
386.00   3.25425836   0.02381870
387.00   3.25091279   0.02400413
388.00   3.24755861   0.02419052
389.00   3.24419582   0.02437787
390.00   3.24082443   0.02456618
391.00   3.23744443   0.02475546
392.00   3.23405582   0.02494571
393.00   3.23065860   0.02513693
394.00   3.22725278   0.02532912
395.00   3.22383835   0.02552229
396.00   3.22041531   0.02571643
397.00   3.21698367   0.02591156
398.00   3.21354342   0.02610767
399.00   3.21009457   0.02630476
400.00   3.20663712   0.02650285
401.00   3.20317106   0.02670192
402.00   3.19969640   0.02690199
403.00   3.19621313   0.02710305
404.00   3.19272127   0.02730511
405.00   3.18922080   0.02750817
406.00   3.18571172   0.02771223
407.00   3.18219405   0.02791730
408.00   3.17866777   0.02812337
409.00   3.17513290   0.02833046
410.00   3.17158942   0.02853856
411.00   3.16803735   0.02874767
412.00   3.16447667   0.02895780
413.00   3.16090739   0.02916895
414.00   3.15732952   0.02938113
415.00   3.15374305   0.02959432
416.00   3.15014798   0.02980855
417.00   3.14654431   0.03002380
418.00   3.14293204   0.03024009
419.00   3.13931118   0.03045741
420.00   3.13568172   0.03067577
421.00   3.13204366   0.03089517
422.00   3.12839701   0.03111561
423.00   3.12474177   0.03133709
424.00   3.12107792   0.03155962
425.00   3.11740549   0.03178320
426.00   3.11372446   0.03200784
427.00   3.11003483   0.03223352
428.00   3.10633662   0.03246026
429.00   3.10262981   0.03268807
430.00   3.09891440   0.03291693
431.00   3.09519041   0.03314686
432.00   3.09145782   0.03337785
433.00   3.08771664   0.03360991
434.00   3.08396687   0.03384305
435.00   3.08020851   0.03407725
436.00   3.07644156   0.03431254
437.00   3.07266602   0.03454890
438.00   3.06888190   0.03478634
439.00   3.06508918   0.03502487
440.00   3.06128787   0.03526448
441.00   3.05747798   0.03550519
442.00   3.05365950   0.03574698
443.00   3.04983243   0.03598986
444.00   3.04599677   0.03623384
445.00   3.04215253   0.03647892
446.00   3.03829970   0.03672510
447.00   3.03443829   0.03697239
448.00   3.03056829   0.03722078
449.00   3.02668971   0.03747027
450.00   3.02280254   0.03772088
451.00   3.01890679   0.03797260
452.00   3.01500245   0.03822543
453.00   3.01108954   0.03847939
454.00   3.00716804   0.03873446
455.00   3.00323795   0.03899066
456.00   2.99929929   0.03924798
457.00   2.99535204   0.03950643
458.00   2.99139622   0.03976600
459.00   2.98743181   0.04002671
460.00   2.98345882   0.04028856
461.00   2.97947726   0.04055154
462.00   2.97548711   0.04081567
463.00   2.97148839   0.04108093
464.00   2.96748108   0.04134734
465.00   2.96346520   0.04161490
466.00   2.95944075   0.04188360
467.00   2.95540771   0.04215346
468.00   2.95136610   0.04242447
469.00   2.94731591   0.04269664
470.00   2.94325715   0.04296997
471.00   2.93918981   0.04324446
472.00   2.93511390   0.04352011
473.00   2.93102941   0.04379693
474.00   2.92693635   0.04407492
475.00   2.92283472   0.04435408
476.00   2.91872451   0.04463441
477.00   2.91460573   0.04491592
478.00   2.91047838   0.04519861
479.00   2.90634246   0.04548248
480.00   2.90219796   0.04576754
481.00   2.89804490   0.04605378
482.00   2.89388326   0.04634121
483.00   2.88971306   0.04662983
484.00   2.88553428   0.04691964
485.00   2.88134694   0.04721065
486.00   2.87715103   0.04750286
487.00   2.87294655   0.04779626
488.00   2.86873350   0.04809087
489.00   2.86451189   0.04838669
490.00   2.86028171   0.04868371
491.00   2.85604296   0.04898195
492.00   2.85179565   0.04928140
493.00   2.84753977   0.04958206
494.00   2.84327532   0.04988394
495.00   2.83900232   0.05018704
496.00   2.83472075   0.05049136
497.00   2.83043061   0.05079691
498.00   2.82613192   0.05110368
499.00   2.82182466   0.05141169
500.00   2.81750883   0.05172093
501.00   2.81318445   0.05203140
502.00   2.80885151   0.05234311
503.00   2.80451000   0.05265606
504.00   2.80015994   0.05297025
505.00   2.79580131   0.05328568
506.00   2.79143413   0.05360237
507.00   2.78705839   0.05392030
508.00   2.78267409   0.05423948
509.00   2.77828123   0.05455992
510.00   2.77387981   0.05488161
511.00   2.76946984   0.05520456
512.00   2.76505131   0.05552878
513.00   2.76062423   0.05585426
514.00   2.75618859   0.05618100
515.00   2.75174440   0.05650901
516.00   2.74729165   0.05683830
517.00   2.74283035   0.05716886
518.00   2.73836049   0.05750069
519.00   2.73388208   0.05783380
520.00   2.72939512   0.05816820
521.00   2.72489961   0.05850387
522.00   2.72039555   0.05884084
523.00   2.71588293   0.05917909
524.00   2.71136176   0.05951863
525.00   2.70683205   0.05985946
526.00   2.70229378   0.06020159
527.00   2.69774697   0.06054502
528.00   2.69319161   0.06088975
529.00   2.68862770   0.06123578
530.00   2.68405524   0.06158311
531.00   2.67947424   0.06193176
532.00   2.67488468   0.06228171
533.00   2.67028659   0.06263298
534.00   2.66567995   0.06298556
535.00   2.66106476   0.06333946
536.00   2.65644103   0.06369467
537.00   2.65180875   0.06405121
538.00   2.64716793   0.06440908
539.00   2.64251857   0.06476827
540.00   2.63786066   0.06512879
541.00   2.63319422   0.06549064
542.00   2.62851923   0.06585383
543.00   2.62383570   0.06621835
544.00   2.61914363   0.06658421
545.00   2.61444302   0.06695142
546.00   2.60973387   0.06731996
547.00   2.60501618   0.06768986
548.00   2.60028996   0.06806110
549.00   2.59555519   0.06843369
550.00   2.59081189   0.06880764
551.00   2.58606005   0.06918295
552.00   2.58129968   0.06955961
553.00   2.57653077   0.06993763
554.00   2.57175332   0.07031702
555.00   2.56696734   0.07069777
556.00   2.56217283   0.07107989
557.00   2.55736978   0.07146338
558.00   2.55255820   0.07184824
559.00   2.54773808   0.07223448
560.00   2.54290944   0.07262210
561.00   2.53807226   0.07301109
562.00   2.53322655   0.07340147
563.00   2.52837231   0.07379324
564.00   2.52350954   0.07418639
565.00   2.51863824   0.07458093
566.00   2.51375841   0.07497687
567.00   2.50887006   0.07537420
568.00   2.50397317   0.07577292
569.00   2.49906776   0.07617305
570.00   2.49415382   0.07657457
571.00   2.48923136   0.07697751
572.00   2.48430037   0.07738185
573.00   2.47936085   0.07778759
574.00   2.47441281   0.07819475
575.00   2.46945624   0.07860333
576.00   2.46449115   0.07901332
577.00   2.45951754   0.07942473
578.00   2.45453541   0.07983756
579.00   2.44954475   0.08025181
580.00   2.44454557   0.08066749
581.00   2.43953787   0.08108460
582.00   2.43452166   0.08150314
583.00   2.42949692   0.08192311
584.00   2.42446366   0.08234452
585.00   2.41942188   0.08276736
586.00   2.41437158   0.08319165
587.00   2.40931277   0.08361738
588.00   2.40424544   0.08404456
589.00   2.39916959   0.08447318
590.00   2.39408523   0.08490325
591.00   2.38899235   0.08533478
592.00   2.38389096   0.08576776
593.00   2.37878105   0.08620220
594.00   2.37366263   0.08663810
595.00   2.36853570   0.08707546
596.00   2.36340025   0.08751429
597.00   2.35825629   0.08795458
598.00   2.35310382   0.08839634
599.00   2.34794284   0.08883957
600.00   2.34277334   0.08928428
601.00   2.33759534   0.08973047
602.00   2.33240883   0.09017813
603.00   2.32721381   0.09062728
604.00   2.32201028   0.09107791
605.00   2.31679824   0.09153002
606.00   2.31157770   0.09198363
607.00   2.30634865   0.09243872
608.00   2.30111109   0.09289531
609.00   2.29586503   0.09335340
610.00   2.29061047   0.09381298
611.00   2.28534740   0.09427407
612.00   2.28007582   0.09473665
613.00   2.27479575   0.09520075
614.00   2.26950717   0.09566635
615.00   2.26421008   0.09613346
616.00   2.25890450   0.09660209
617.00   2.25359042   0.09707222
618.00   2.24826783   0.09754388
619.00   2.24293675   0.09801706
620.00   2.23759717   0.09849176
621.00   2.23224909   0.09896798
622.00   2.22689251   0.09944574
623.00   2.22152743   0.09992502
624.00   2.21615386   0.10040583
625.00   2.21077179   0.10088818
626.00   2.20538122   0.10137206
627.00   2.19998216   0.10185749
628.00   2.19457461   0.10234445
629.00   2.18915856   0.10283296
630.00   2.18373402   0.10332302
631.00   2.17830099   0.10381462
632.00   2.17285946   0.10430778
633.00   2.16740944   0.10480249
634.00   2.16195093   0.10529875
635.00   2.15648393   0.10579658
636.00   2.15100845   0.10629596
637.00   2.14552447   0.10679691
638.00   2.14003200   0.10729942
639.00   2.13453105   0.10780350
640.00   2.12902161   0.10830916
641.00   2.12350368   0.10881638
642.00   2.11797726   0.10932518
643.00   2.11244236   0.10983556
644.00   2.10689898   0.11034752
645.00   2.10134711   0.11086106
646.00   2.09578676   0.11137618
647.00   2.09021792   0.11189289
648.00   2.08464060   0.11241119
649.00   2.07905480   0.11293109
650.00   2.07346052   0.11345257
651.00   2.06785776   0.11397566
652.00   2.06224652   0.11450034
653.00   2.05662680   0.11502663
654.00   2.05099860   0.11555452
655.00   2.04536192   0.11608401
656.00   2.03971676   0.11661512
657.00   2.03406313   0.11714783
658.00   2.02840102   0.11768216
659.00   2.02273043   0.11821810
660.00   2.01705137   0.11875567
661.00   2.01136383   0.11929485
662.00   2.00566782   0.11983566
663.00   1.99996334   0.12037809
664.00   1.99425039   0.12092215
665.00   1.98852896   0.12146784
666.00   1.98279906   0.12201516
667.00   1.97706069   0.12256412
668.00   1.97131385   0.12311471
669.00   1.96555854   0.12366695
670.00   1.95979476   0.12422083
671.00   1.95402251   0.12477635
672.00   1.94824180   0.12533352
673.00   1.94245261   0.12589233
674.00   1.93665496   0.12645280
675.00   1.93084885   0.12701493
676.00   1.92503427   0.12757871
677.00   1.91921122   0.12814415
678.00   1.91337971   0.12871125
679.00   1.90753974   0.12928001
680.00   1.90169131   0.12985044
681.00   1.89583441   0.13042254
682.00   1.88996905   0.13099631
683.00   1.88409523   0.13157175
684.00   1.87821295   0.13214887
685.00   1.87232221   0.13272766
686.00   1.86642302   0.13330814
687.00   1.86051536   0.13389030
688.00   1.85459925   0.13447414
689.00   1.84867467   0.13505967
690.00   1.84274165   0.13564690
691.00   1.83680016   0.13623581
692.00   1.83085023   0.13682642
693.00   1.82489183   0.13741872
694.00   1.81892499   0.13801273
695.00   1.81294969   0.13860843
696.00   1.80696594   0.13920584
697.00   1.80097373   0.13980496
698.00   1.79497308   0.14040579
699.00   1.78896397   0.14100833
700.00   1.78294642   0.14161258
701.00   1.77692041   0.14221854
702.00   1.77088596   0.14282623
703.00   1.76484306   0.14343564
704.00   1.75879171   0.14404677
705.00   1.75273191   0.14465962
706.00   1.74666367   0.14527420
707.00   1.74058698   0.14589052
708.00   1.73450185   0.14650856
709.00   1.72840828   0.14712834
710.00   1.72230626   0.14774986
711.00   1.71619580   0.14837312
712.00   1.71007689   0.14899812
713.00   1.70394955   0.14962487
714.00   1.69781376   0.15025336
715.00   1.69166954   0.15088360
716.00   1.68551687   0.15151559
717.00   1.67935577   0.15214934
718.00   1.67318623   0.15278484
719.00   1.66700825   0.15342211
720.00   1.66082183   0.15406113
721.00   1.65462698   0.15470192
722.00   1.64842369   0.15534447
723.00   1.64221197   0.15598879
724.00   1.63599181   0.15663489
725.00   1.62976322   0.15728275
726.00   1.62352620   0.15793239
727.00   1.61728075   0.15858381
728.00   1.61102686   0.15923701
729.00   1.60476454   0.15989199
730.00   1.59849380   0.16054876
731.00   1.59221462   0.16120731
732.00   1.58592702   0.16186765
733.00   1.57963098   0.16252979
734.00   1.57332652   0.16319372
735.00   1.56701364   0.16385944
736.00   1.56069233   0.16452697
737.00   1.55436259   0.16519629
738.00   1.54802443   0.16586743
739.00   1.54167784   0.16654036
740.00   1.53532283   0.16721511
741.00   1.52895940   0.16789166
742.00   1.52258755   0.16857003
743.00   1.51620727   0.16925022
744.00   1.50981858   0.16993222
745.00   1.50342146   0.17061605
746.00   1.49701593   0.17130169
747.00   1.49060197   0.17198916
748.00   1.48417960   0.17267846
749.00   1.47774882   0.17336959
750.00   1.47130961   0.17406255
751.00   1.46486200   0.17475735
752.00   1.45840596   0.17545398
753.00   1.45194151   0.17615245
754.00   1.44546865   0.17685277
755.00   1.43898738   0.17755493
756.00   1.43249769   0.17825893
757.00   1.42599959   0.17896478
758.00   1.41949308   0.17967249
759.00   1.41297817   0.18038205
760.00   1.40645484   0.18109346
761.00   1.39992310   0.18180673
762.00   1.39338296   0.18252186
763.00   1.38683441   0.18323886
764.00   1.38027745   0.18395772
765.00   1.37371208   0.18467845
766.00   1.36713832   0.18540105
767.00   1.36055614   0.18612552
768.00   1.35396557   0.18685186
769.00   1.34736659   0.18758008
770.00   1.34075920   0.18831018
771.00   1.33414342   0.18904217
772.00   1.32751923   0.18977604
773.00   1.32088665   0.19051179
774.00   1.31424567   0.19124943
775.00   1.30759628   0.19198897
776.00   1.30093850   0.19273039
777.00   1.29427233   0.19347372
778.00   1.28759775   0.19421894
779.00   1.28091478   0.19496606
780.00   1.27422342   0.19571509
781.00   1.26752366   0.19646602
782.00   1.26081550   0.19721886
783.00   1.25409896   0.19797361
784.00   1.24737402   0.19873027
785.00   1.24064069   0.19948884
786.00   1.23389897   0.20024934
787.00   1.22714886   0.20101175
788.00   1.22039036   0.20177608
789.00   1.21362347   0.20254234
790.00   1.20684820   0.20331052
791.00   1.20006453   0.20408064
792.00   1.19327248   0.20485268
793.00   1.18647205   0.20562666
794.00   1.17966323   0.20640257
795.00   1.17284602   0.20718043
796.00   1.16602044   0.20796022
797.00   1.15918647   0.20874195
798.00   1.15234411   0.20952564
799.00   1.14549338   0.21031126
800.00   1.13863427   0.21109884
801.00   1.13176677   0.21188837
802.00   1.12489090   0.21267986
803.00   1.11800665   0.21347330
804.00   1.11111402   0.21426870
805.00   1.10421301   0.21506607
806.00   1.09730363   0.21586539
807.00   1.09038588   0.21666669
808.00   1.08345975   0.21746995
809.00   1.07652524   0.21827519
810.00   1.06958236   0.21908239
811.00   1.06263111   0.21989158
812.00   1.05567149   0.22070274
813.00   1.04870350   0.22151588
814.00   1.04172714   0.22233100
815.00   1.03474240   0.22314811
816.00   1.02774930   0.22396721
817.00   1.02074783   0.22478829
818.00   1.01373800   0.22561137
819.00   1.00671980   0.22643645
820.00   0.99969323   0.22726352
821.00   0.99265830   0.22809259
822.00   0.98561500   0.22892366
823.00   0.97856334   0.22975673
824.00   0.97150332   0.23059181
825.00   0.96443494   0.23142890
826.00   0.95735819   0.23226800
827.00   0.95027309   0.23310911
828.00   0.94317962   0.23395224
829.00   0.93607780   0.23479739
830.00   0.92896762   0.23564456
831.00   0.92184908   0.23649375
832.00   0.91472219   0.23734496
833.00   0.90758694   0.23819820
834.00   0.90044333   0.23905347
835.00   0.89329137   0.23991077
836.00   0.88613106   0.24077011
837.00   0.87896239   0.24163149
838.00   0.87178538   0.24249490
839.00   0.86460001   0.24336035
840.00   0.85740629   0.24422785
841.00   0.85020422   0.24509739
842.00   0.84299381   0.24596898
843.00   0.83577504   0.24684262
844.00   0.82854793   0.24771832
845.00   0.82131247   0.24859607
846.00   0.81406867   0.24947588
847.00   0.80681652   0.25035774
848.00   0.79955603   0.25124167
849.00   0.79228719   0.25212767
850.00   0.78501001   0.25301573
851.00   0.77772449   0.25390586
852.00   0.77043063   0.25479806
853.00   0.76312843   0.25569233
854.00   0.75581789   0.25658868
855.00   0.74849901   0.25748711
856.00   0.74117179   0.25838762
857.00   0.73383624   0.25929022
858.00   0.72649235   0.26019489
859.00   0.71914013   0.26110166
860.00   0.71177957   0.26201052
861.00   0.70441067   0.26292147
862.00   0.69703344   0.26383451
863.00   0.68964789   0.26474965
864.00   0.68225399   0.26566689
865.00   0.67485177   0.26658623
866.00   0.66744122   0.26750768
867.00   0.66002234   0.26843123
868.00   0.65259513   0.26935689
869.00   0.64515960   0.27028467
870.00   0.63771573   0.27121455
871.00   0.63026355   0.27214655
872.00   0.62280303   0.27308067
873.00   0.61533419   0.27401691
874.00   0.60785703   0.27495527
875.00   0.60037155   0.27589576
876.00   0.59287774   0.27683837
877.00   0.58537562   0.27778312
878.00   0.57786517   0.27872999
879.00   0.57034640   0.27967900
880.00   0.56281932   0.28063015
881.00   0.55528391   0.28158343
882.00   0.54774019   0.28253886
883.00   0.54018815   0.28349643
884.00   0.53262780   0.28445615
885.00   0.52505914   0.28541801
886.00   0.51748215   0.28638202
887.00   0.50989686   0.28734819
888.00   0.50230326   0.28831651
889.00   0.49470134   0.28928699
890.00   0.48709111   0.29025963
891.00   0.47947257   0.29123443
892.00   0.47184573   0.29221139
893.00   0.46421057   0.29319053
894.00   0.45656711   0.29417183
895.00   0.44891534   0.29515530
896.00   0.44125527   0.29614094
897.00   0.43358689   0.29712876
898.00   0.42591021   0.29811876
899.00   0.41822522   0.29911094
900.00   0.41053193   0.30010530
901.00   0.40283034   0.30110185
902.00   0.39512045   0.30210059
903.00   0.38740226   0.30310151
904.00   0.37967577   0.30410463
905.00   0.37194099   0.30510994
906.00   0.36419790   0.30611745
907.00   0.35644652   0.30712715
908.00   0.34868684   0.30813906
909.00   0.34091887   0.30915317
910.00   0.33314261   0.31016949
911.00   0.32535805   0.31118801
912.00   0.31756519   0.31220875
913.00   0.30976405   0.31323170
914.00   0.30195462   0.31425686
915.00   0.29413689   0.31528424
916.00   0.28631088   0.31631384
917.00   0.27847658   0.31734566
918.00   0.27063399   0.31837971
919.00   0.26278311   0.31941598
920.00   0.25492395   0.32045449
921.00   0.24705651   0.32149522
922.00   0.23918078   0.32253819
923.00   0.23129677   0.32358339
924.00   0.22340447   0.32463083
925.00   0.21550389   0.32568051
926.00   0.20759504   0.32673243
927.00   0.19967790   0.32778660
928.00   0.19175248   0.32884302
929.00   0.18381879   0.32990168
930.00   0.17587682   0.33096260
931.00   0.16792657   0.33202577
932.00   0.15996805   0.33309120
933.00   0.15200125   0.33415889
934.00   0.14402618   0.33522883
935.00   0.13604283   0.33630105
936.00   0.12805121   0.33737552
937.00   0.12005133   0.33845227
938.00   0.11204317   0.33953128
939.00   0.10402674   0.34061257
940.00   0.09600204   0.34169613
941.00   0.08796908   0.34278197
942.00   0.07992785   0.34387009
943.00   0.07187835   0.34496049
944.00   0.06382058   0.34605318
945.00   0.05575456   0.34714815
946.00   0.04768027   0.34824541
947.00   0.03959771   0.34934496
948.00   0.03150690   0.35044680
949.00   0.02340782   0.35155094
950.00   0.01530048   0.35265738
951.00   0.00718489   0.35376611
952.00  -0.00093897   0.35487715
953.00  -0.00907108   0.35599049
954.00  -0.01721145   0.35710615
955.00  -0.02536007   0.35822410
956.00  -0.03351695   0.35934438
957.00  -0.04168208   0.36046696
958.00  -0.04985547   0.36159186
959.00  -0.05803711   0.36271908
960.00  -0.06622700   0.36384862
961.00  -0.07442514   0.36498048
962.00  -0.08263153   0.36611467
963.00  -0.09084617   0.36725119
964.00  -0.09906905   0.36839003
965.00  -0.10730019   0.36953121
966.00  -0.11553957   0.37067472
967.00  -0.12378719   0.37182057
968.00  -0.13204306   0.37296876
969.00  -0.14030717   0.37411928
970.00  -0.14857953   0.37527216
971.00  -0.15686013   0.37642737
972.00  -0.16514896   0.37758494
973.00  -0.17344604   0.37874485
974.00  -0.18175136   0.37990712
975.00  -0.19006491   0.38107175
976.00  -0.19838671   0.38223873
977.00  -0.20671673   0.38340807
978.00  -0.21505500   0.38457977
979.00  -0.22340150   0.38575383
980.00  -0.23175623   0.38693026
981.00  -0.24011919   0.38810906
982.00  -0.24849039   0.38929024
983.00  -0.25686982   0.39047378
984.00  -0.26525748   0.39165970
985.00  -0.27365337   0.39284800
986.00  -0.28205748   0.39403867
987.00  -0.29046983   0.39523173
988.00  -0.29889040   0.39642717
989.00  -0.30731919   0.39762500
990.00  -0.31575621   0.39882522
991.00  -0.32420146   0.40002783
992.00  -0.33265492   0.40123284
993.00  -0.34111661   0.40244024
994.00  -0.34958652   0.40365003
995.00  -0.35806465   0.40486223
996.00  -0.36655101   0.40607683
997.00  -0.37504557   0.40729384
998.00  -0.38354836   0.40851325
999.00  -0.39205936   0.40973507
1000.00  -0.40057858   0.41095931
1001.00  -0.40910601   0.41218596
1002.00  -0.41764166   0.41341502
1003.00  -0.42618552   0.41464650
1004.00  -0.43473759   0.41588041
1005.00  -0.44329788   0.41711673
1006.00  -0.45186637   0.41835548
1007.00  -0.46044307   0.41959666
1008.00  -0.46902799   0.42084027
1009.00  -0.47762111   0.42208631
1010.00  -0.48622243   0.42333479
1011.00  -0.49483196   0.42458570
1012.00  -0.50344970   0.42583905
1013.00  -0.51207564   0.42709484
1014.00  -0.52070978   0.42835308
1015.00  -0.52935213   0.42961376
1016.00  -0.53800267   0.43087689
1017.00  -0.54666142   0.43214247
1018.00  -0.55532836   0.43341050
1019.00  -0.56400351   0.43468099
1020.00  -0.57268685   0.43595393
1021.00  -0.58137839   0.43722933
1022.00  -0.59007812   0.43850720
1023.00  -0.59878605   0.43978753
1024.00  -0.60750217   0.44107032
1025.00  -0.61622648   0.44235558
1026.00  -0.62495899   0.44364332
1027.00  -0.63369969   0.44493352
1028.00  -0.64244857   0.44622620
1029.00  -0.65120565   0.44752136
1030.00  -0.65997092   0.44881900
1031.00  -0.66874437   0.45011912
1032.00  -0.67752600   0.45142172
1033.00  -0.68631583   0.45272681
1034.00  -0.69511383   0.45403439
1035.00  -0.70392003   0.45534446
1036.00  -0.71273440   0.45665702
1037.00  -0.72155695   0.45797208
1038.00  -0.73038769   0.45928963
1039.00  -0.73922660   0.46060969
1040.00  -0.74807370   0.46193224
1041.00  -0.75692897   0.46325731
1042.00  -0.76579242   0.46458487
1043.00  -0.77466404   0.46591495
1044.00  -0.78354384   0.46724754
1045.00  -0.79243182   0.46858264
1046.00  -0.80132796   0.46992026
1047.00  -0.81023228   0.47126039
1048.00  -0.81914477   0.47260305
1049.00  -0.82806543   0.47394822
1050.00  -0.83699426   0.47529593
1051.00  -0.84593126   0.47664615
1052.00  -0.85487643   0.47799891
1053.00  -0.86382976   0.47935420
1054.00  -0.87279125   0.48071202
1055.00  -0.88176092   0.48207238
1056.00  -0.89073874   0.48343528
1057.00  -0.89972473   0.48480072
1058.00  -0.90871888   0.48616869
1059.00  -0.91772119   0.48753922
1060.00  -0.92673166   0.48891229
1061.00  -0.93575029   0.49028791
1062.00  -0.94477708   0.49166608
1063.00  -0.95381202   0.49304681
1064.00  -0.96285512   0.49443009
1065.00  -0.97190638   0.49581593
1066.00  -0.98096578   0.49720433
1067.00  -0.99003335   0.49859529
1068.00  -0.99910906   0.49998882
1069.00  -1.00819292   0.50138492
1070.00  -1.01728494   0.50278358
1071.00  -1.02638510   0.50418482
1072.00  -1.03549342   0.50558863
1073.00  -1.04460988   0.50699501
1074.00  -1.05373448   0.50840398
1075.00  -1.06286723   0.50981552
1076.00  -1.07200813   0.51122965
1077.00  -1.08115717   0.51264636
1078.00  -1.09031435   0.51406567
1079.00  -1.09947967   0.51548756
1080.00  -1.10865314   0.51691204
1081.00  -1.11783474   0.51833911
1082.00  -1.12702448   0.51976879
1083.00  -1.13622236   0.52120106
1084.00  -1.14542838   0.52263593
1085.00  -1.15464253   0.52407340
1086.00  -1.16386481   0.52551348
1087.00  -1.17309523   0.52695617
1088.00  -1.18233379   0.52840147
1089.00  -1.19158047   0.52984937
1090.00  -1.20083528   0.53129990
1091.00  -1.21009823   0.53275304
1092.00  -1.21936930   0.53420879
1093.00  -1.22864850   0.53566717
1094.00  -1.23793583   0.53712817
1095.00  -1.24723128   0.53859180
1096.00  -1.25653486   0.54005805
1097.00  -1.26584656   0.54152694
1098.00  -1.27516639   0.54299845
1099.00  -1.28449433   0.54447260
1100.00  -1.29383040   0.54594939
1101.00  -1.30317459   0.54742881
1102.00  -1.31252689   0.54891088
1103.00  -1.32188732   0.55039559
1104.00  -1.33125586   0.55188294
1105.00  -1.34063252   0.55337294
1106.00  -1.35001729   0.55486559
1107.00  -1.35941017   0.55636089
1108.00  -1.36881117   0.55785885
1109.00  -1.37822028   0.55935946
1110.00  -1.38763750   0.56086274
1111.00  -1.39706283   0.56236867
1112.00  -1.40649627   0.56387727
1113.00  -1.41593782   0.56538853
1114.00  -1.42538748   0.56690245
1115.00  -1.43484524   0.56841905
1116.00  -1.44431110   0.56993832
1117.00  -1.45378507   0.57146027
1118.00  -1.46326715   0.57298489
1119.00  -1.47275732   0.57451219
1120.00  -1.48225560   0.57604217
1121.00  -1.49176197   0.57757483
1122.00  -1.50127644   0.57911018
1123.00  -1.51079902   0.58064821
1124.00  -1.52032969   0.58218894
1125.00  -1.52986845   0.58373235
1126.00  -1.53941531   0.58527846
1127.00  -1.54897026   0.58682727
1128.00  -1.55853331   0.58837878
1129.00  -1.56810445   0.58993298
1130.00  -1.57768368   0.59148989
1131.00  -1.58727099   0.59304950
1132.00  -1.59686640   0.59461183
1133.00  -1.60646990   0.59617686
1134.00  -1.61608148   0.59774460
1135.00  -1.62570115   0.59931506
1136.00  -1.63532890   0.60088823
1137.00  -1.64496473   0.60246412
1138.00  -1.65460865   0.60404273
1139.00  -1.66426065   0.60562406
1140.00  -1.67392073   0.60720812
1141.00  -1.68358889   0.60879491
1142.00  -1.69326513   0.61038443
1143.00  -1.70294945   0.61197667
1144.00  -1.71264184   0.61357165
1145.00  -1.72234231   0.61516937
1146.00  -1.73205085   0.61676983
1147.00  -1.74176747   0.61837302
1148.00  -1.75149216   0.61997896
1149.00  -1.76122492   0.62158764
1150.00  -1.77096575   0.62319907
1151.00  -1.78071465   0.62481325
1152.00  -1.79047162   0.62643018
1153.00  -1.80023666   0.62804987
1154.00  -1.81000976   0.62967231
1155.00  -1.81979093   0.63129750
1156.00  -1.82958016   0.63292546
1157.00  -1.83937745   0.63455618
1158.00  -1.84918281   0.63618967
1159.00  -1.85899623   0.63782592
1160.00  -1.86881770   0.63946494
1161.00  -1.87864724   0.64110673
1162.00  -1.88848484   0.64275130
1163.00  -1.89833049   0.64439864
1164.00  -1.90818419   0.64604876
1165.00  -1.91804596   0.64770165
1166.00  -1.92791577   0.64935734
1167.00  -1.93779364   0.65101580
1168.00  -1.94767956   0.65267705
1169.00  -1.95757353   0.65434109
1170.00  -1.96747556   0.65600792
1171.00  -1.97738563   0.65767755
1172.00  -1.98730374   0.65934997
1173.00  -1.99722991   0.66102518
1174.00  -2.00716412   0.66270320
1175.00  -2.01710637   0.66438402
1176.00  -2.02705667   0.66606764
1177.00  -2.03701501   0.66775407
1178.00  -2.04698139   0.66944331
1179.00  -2.05695581   0.67113535
1180.00  -2.06693827   0.67283021
1181.00  -2.07692876   0.67452789
1182.00  -2.08692730   0.67622838
1183.00  -2.09693387   0.67793169
1184.00  -2.10694848   0.67963783
1185.00  -2.11697112   0.68134678
1186.00  -2.12700179   0.68305857
1187.00  -2.13704049   0.68477318
1188.00  -2.14708723   0.68649062
1189.00  -2.15714199   0.68821089
1190.00  -2.16720479   0.68993400
1191.00  -2.17727561   0.69165995
1192.00  -2.18735445   0.69338873
1193.00  -2.19744133   0.69512036
1194.00  -2.20753622   0.69685483
1195.00  -2.21763914   0.69859214
1196.00  -2.22775009   0.70033230
1197.00  -2.23786905   0.70207531
1198.00  -2.24799603   0.70382118
1199.00  -2.25813104   0.70556990
1200.00  -2.26827406   0.70732147
1201.00  -2.27842510   0.70907590
1202.00  -2.28858415   0.71083320
1203.00  -2.29875122   0.71259335
1204.00  -2.30892630   0.71435638
1205.00  -2.31910939   0.71612227
1206.00  -2.32930050   0.71789102
1207.00  -2.33949962   0.71966265
1208.00  -2.34970674   0.72143716
1209.00  -2.35992187   0.72321454
1210.00  -2.37014502   0.72499480
1211.00  -2.38037616   0.72677793
1212.00  -2.39061532   0.72856396
1213.00  -2.40086247   0.73035286
1214.00  -2.41111763   0.73214465
1215.00  -2.42138079   0.73393934
1216.00  -2.43165195   0.73573691
1217.00  -2.44193112   0.73753737
1218.00  -2.45221828   0.73934074
1219.00  -2.46251343   0.74114699
1220.00  -2.47281659   0.74295615
1221.00  -2.48312774   0.74476821
1222.00  -2.49344688   0.74658318
1223.00  -2.50377402   0.74840105
1224.00  -2.51410915   0.75022183
1225.00  -2.52445227   0.75204552
1226.00  -2.53480338   0.75387212
1227.00  -2.54516247   0.75570164
1228.00  -2.55552956   0.75753408
1229.00  -2.56590463   0.75936943
1230.00  -2.57628769   0.76120771
1231.00  -2.58667874   0.76304891
1232.00  -2.59707776   0.76489304
1233.00  -2.60748477   0.76674009
1234.00  -2.61789976   0.76859007
1235.00  -2.62832273   0.77044299
1236.00  -2.63875368   0.77229884
1237.00  -2.64919261   0.77415763
1238.00  -2.65963951   0.77601935
1239.00  -2.67009439   0.77788402
1240.00  -2.68055724   0.77975163
1241.00  -2.69102807   0.78162218
1242.00  -2.70150687   0.78349569
1243.00  -2.71199364   0.78537214
1244.00  -2.72248838   0.78725154
1245.00  -2.73299109   0.78913390
1246.00  -2.74350177   0.79101921
1247.00  -2.75402042   0.79290748
1248.00  -2.76454703   0.79479871
1249.00  -2.77508160   0.79669291
1250.00  -2.78562414   0.79859007
1251.00  -2.79617464   0.80049019
1252.00  -2.80673311   0.80239329
1253.00  -2.81729953   0.80429935
1254.00  -2.82787391   0.80620839
1255.00  -2.83845625   0.80812040
1256.00  -2.84904655   0.81003540
1257.00  -2.85964480   0.81195337
1258.00  -2.87025101   0.81387432
1259.00  -2.88086517   0.81579826
1260.00  -2.89148729   0.81772518
1261.00  -2.90211735   0.81965509
1262.00  -2.91275537   0.82158799
1263.00  -2.92340133   0.82352389
1264.00  -2.93405524   0.82546277
1265.00  -2.94471710   0.82740466
1266.00  -2.95538691   0.82934954
1267.00  -2.96606466   0.83129743
1268.00  -2.97675035   0.83324832
1269.00  -2.98744399   0.83520221
1270.00  -2.99814556   0.83715911
1271.00  -3.00885508   0.83911902
1272.00  -3.01957254   0.84108195
1273.00  -3.03029793   0.84304788
1274.00  -3.04103126   0.84501684
1275.00  -3.05177253   0.84698881
1276.00  -3.06252173   0.84896380
1277.00  -3.07327886   0.85094181
1278.00  -3.08404393   0.85292285
1279.00  -3.09481693   0.85490692
1280.00  -3.10559786   0.85689401
1281.00  -3.11638671   0.85888414
1282.00  -3.12718350   0.86087729
1283.00  -3.13798821   0.86287349
1284.00  -3.14880085   0.86487272
1285.00  -3.15962141   0.86687499
1286.00  -3.17044989   0.86888030
1287.00  -3.18128630   0.87088866
1288.00  -3.19213063   0.87290006
1289.00  -3.20298287   0.87491451
1290.00  -3.21384304   0.87693201
1291.00  -3.22471112   0.87895256
1292.00  -3.23558712   0.88097617
1293.00  -3.24647104   0.88300283
1294.00  -3.25736287   0.88503256
1295.00  -3.26826261   0.88706534
1296.00  -3.27917027   0.88910118
1297.00  -3.29008583   0.89114010
1298.00  -3.30100931   0.89318207
1299.00  -3.31194069   0.89522712
1300.00  -3.32287998   0.89727524
1301.00  -3.33382718   0.89932643
1302.00  -3.34478228   0.90138070
1303.00  -3.35574528   0.90343805
1304.00  -3.36671619   0.90549848
1305.00  -3.37769500   0.90756199
1306.00  -3.38868171   0.90962858
1307.00  -3.39967632   0.91169826
1308.00  -3.41067883   0.91377102
1309.00  -3.42168923   0.91584688
1310.00  -3.43270753   0.91792583
1311.00  -3.44373373   0.92000788
1312.00  -3.45476782   0.92209302
1313.00  -3.46580980   0.92418126
1314.00  -3.47685967   0.92627261
1315.00  -3.48791743   0.92836705
1316.00  -3.49898308   0.93046461
1317.00  -3.51005662   0.93256526
1318.00  -3.52113804   0.93466903
1319.00  -3.53222736   0.93677591
1320.00  -3.54332455   0.93888591
1321.00  -3.55442963   0.94099902
1322.00  -3.56554259   0.94311525
1323.00  -3.57666343   0.94523460
1324.00  -3.58779215   0.94735707
1325.00  -3.59892875   0.94948266
1326.00  -3.61007322   0.95161139
1327.00  -3.62122558   0.95374324
1328.00  -3.63238580   0.95587822
1329.00  -3.64355390   0.95801633
1330.00  -3.65472988   0.96015758
1331.00  -3.66591372   0.96230197
1332.00  -3.67710544   0.96444949
1333.00  -3.68830502   0.96660016
1334.00  -3.69951248   0.96875397
1335.00  -3.71072779   0.97091093
1336.00  -3.72195098   0.97307103
1337.00  -3.73318203   0.97523428
1338.00  -3.74442094   0.97740069
1339.00  -3.75566772   0.97957025
1340.00  -3.76692235   0.98174296
1341.00  -3.77818485   0.98391884
1342.00  -3.78945520   0.98609787
1343.00  -3.80073341   0.98828007
1344.00  -3.81201948   0.99046543
1345.00  -3.82331340   0.99265395
1346.00  -3.83461518   0.99484565
1347.00  -3.84592481   0.99704052
1348.00  -3.85724229   0.99923855
1349.00  -3.86856762   1.00143977
1350.00  -3.87990080   1.00364416
1351.00  -3.89124183   1.00585173
1352.00  -3.90259070   1.00806248
1353.00  -3.91394742   1.01027642
1354.00  -3.92531199   1.01249354
1355.00  -3.93668440   1.01471384
1356.00  -3.94806465   1.01693734
1357.00  -3.95945274   1.01916403
1358.00  -3.97084867   1.02139391
1359.00  -3.98225244   1.02362699
1360.00  -3.99366404   1.02586327
1361.00  -4.00508349   1.02810275
1362.00  -4.01651076   1.03034543
1363.00  -4.02794587   1.03259131
1364.00  -4.03938882   1.03484040
1365.00  -4.05083959   1.03709270
1366.00  -4.06229820   1.03934821
1367.00  -4.07376463   1.04160693
1368.00  -4.08523890   1.04386887
1369.00  -4.09672098   1.04613402
1370.00  -4.10821090   1.04840239
1371.00  -4.11970864   1.05067398
1372.00  -4.13121420   1.05294880
1373.00  -4.14272758   1.05522684
1374.00  -4.15424878   1.05750811
1375.00  -4.16577781   1.05979261
1376.00  -4.17731465   1.06208034
1377.00  -4.18885931   1.06437130
1378.00  -4.20041178   1.06666550
1379.00  -4.21197207   1.06896293
1380.00  -4.22354017   1.07126361
1381.00  -4.23511609   1.07356753
1382.00  -4.24669981   1.07587469
1383.00  -4.25829135   1.07818510
1384.00  -4.26989069   1.08049875
1385.00  -4.28149784   1.08281566
1386.00  -4.29311280   1.08513582
1387.00  -4.30473556   1.08745923
1388.00  -4.31636612   1.08978590
1389.00  -4.32800449   1.09211582
1390.00  -4.33965066   1.09444901
1391.00  -4.35130463   1.09678546
1392.00  -4.36296640   1.09912518
1393.00  -4.37463597   1.10146816
1394.00  -4.38631333   1.10381441
1395.00  -4.39799849   1.10616393
1396.00  -4.40969144   1.10851672
1397.00  -4.42139218   1.11087279
1398.00  -4.43310072   1.11323214
1399.00  -4.44481705   1.11559477
1400.00  -4.45654116   1.11796067
1401.00  -4.46827307   1.12032986
1402.00  -4.48001276   1.12270234
1403.00  -4.49176023   1.12507810
1404.00  -4.50351550   1.12745715
1405.00  -4.51527854   1.12983950
1406.00  -4.52704936   1.13222514
1407.00  -4.53882797   1.13461407
1408.00  -4.55061436   1.13700630
1409.00  -4.56240852   1.13940183
1410.00  -4.57421046   1.14180067
1411.00  -4.58602018   1.14420280
1412.00  -4.59783767   1.14660825
1413.00  -4.60966293   1.14901700
1414.00  -4.62149597   1.15142906
1415.00  -4.63333678   1.15384443
1416.00  -4.64518535   1.15626312
1417.00  -4.65704170   1.15868513
1418.00  -4.66890581   1.16111045
1419.00  -4.68077769   1.16353909
1420.00  -4.69265733   1.16597106
1421.00  -4.70454474   1.16840635
1422.00  -4.71643991   1.17084497
1423.00  -4.72834284   1.17328691
1424.00  -4.74025353   1.17573219
1425.00  -4.75217197   1.17818080
1426.00  -4.76409818   1.18063275
1427.00  -4.77603214   1.18308803
1428.00  -4.78797386   1.18554665
1429.00  -4.79992333   1.18800861
1430.00  -4.81188055   1.19047391
1431.00  -4.82384552   1.19294256
1432.00  -4.83581825   1.19541456
1433.00  -4.84779872   1.19788991
1434.00  -4.85978694   1.20036860
1435.00  -4.87178290   1.20285066
1436.00  -4.88378661   1.20533606
1437.00  -4.89579806   1.20782483
1438.00  -4.90781726   1.21031695
1439.00  -4.91984420   1.21281244
1440.00  -4.93187888   1.21531128
1441.00  -4.94392129   1.21781350
1442.00  -4.95597144   1.22031908
1443.00  -4.96802933   1.22282803
1444.00  -4.98009496   1.22534036
1445.00  -4.99216832   1.22785605
1446.00  -5.00424941   1.23037513
1447.00  -5.01633823   1.23289758
1448.00  -5.02843478   1.23542341
1449.00  -5.04053906   1.23795262
1450.00  -5.05265107   1.24048522
1451.00  -5.06477080   1.24302120
1452.00  -5.07689826   1.24556057
1453.00  -5.08903344   1.24810334
1454.00  -5.10117635   1.25064949
1455.00  -5.11332697   1.25319904
1456.00  -5.12548532   1.25575198
1457.00  -5.13765138   1.25830833
1458.00  -5.14982517   1.26086807
1459.00  -5.16200666   1.26343122
1460.00  -5.17419588   1.26599777
1461.00  -5.18639280   1.26856772
1462.00  -5.19859744   1.27114109
1463.00  -5.21080979   1.27371786
1464.00  -5.22302985   1.27629805
1465.00  -5.23525762   1.27888166
1466.00  -5.24749309   1.28146867
1467.00  -5.25973628   1.28405911
1468.00  -5.27198716   1.28665297
1469.00  -5.28424575   1.28925025
1470.00  -5.29651204   1.29185096
1471.00  -5.30878604   1.29445509
1472.00  -5.32106773   1.29706266
1473.00  -5.33335712   1.29967365
1474.00  -5.34565421   1.30228808
1475.00  -5.35795899   1.30490594
1476.00  -5.37027147   1.30752723
1477.00  -5.38259164   1.31015197
1478.00  -5.39491951   1.31278015
1479.00  -5.40725506   1.31541177
1480.00  -5.41959831   1.31804684
1481.00  -5.43194924   1.32068535
1482.00  -5.44430786   1.32332731
1483.00  -5.45667417   1.32597273
1484.00  -5.46904815   1.32862159
1485.00  -5.48142983   1.33127391
1486.00  -5.49381918   1.33392969
1487.00  -5.50621622   1.33658893
1488.00  -5.51862093   1.33925163
1489.00  -5.53103333   1.34191779
1490.00  -5.54345340   1.34458742
1491.00  -5.55588114   1.34726051
1492.00  -5.56831656   1.34993708
1493.00  -5.58075965   1.35261712
1494.00  -5.59321041   1.35530062
1495.00  -5.60566885   1.35798761
1496.00  -5.61813495   1.36067807
1497.00  -5.63060872   1.36337201
1498.00  -5.64309016   1.36606943
1499.00  -5.65557926   1.36877034
1500.00  -5.66807603   1.37147473
1501.00  -5.68058046   1.37418261
1502.00  -5.69309255   1.37689398
1503.00  -5.70561230   1.37960884
1504.00  -5.71813971   1.38232719
1505.00  -5.73067477   1.38504904
1506.00  -5.74321750   1.38777439
1507.00  -5.75576788   1.39050323
1508.00  -5.76832591   1.39323558
1509.00  -5.78089159   1.39597143
1510.00  -5.79346492   1.39871079
1511.00  -5.80604591   1.40145365
1512.00  -5.81863454   1.40420002
1513.00  -5.83123082   1.40694991
1514.00  -5.84383475   1.40970331
1515.00  -5.85644632   1.41246022
1516.00  -5.86906553   1.41522065
1517.00  -5.88169239   1.41798460
1518.00  -5.89432688   1.42075208
1519.00  -5.90696902   1.42352307
1520.00  -5.91961879   1.42629760
1521.00  -5.93227620   1.42907564
1522.00  -5.94494125   1.43185722
1523.00  -5.95761393   1.43464233
1524.00  -5.97029424   1.43743098
1525.00  -5.98298218   1.44022316
1526.00  -5.99567776   1.44301888
1527.00  -6.00838096   1.44581813
1528.00  -6.02109179   1.44862093
1529.00  -6.03381025   1.45142727
1530.00  -6.04653633   1.45423716
1531.00  -6.05927003   1.45705059
1532.00  -6.07201136   1.45986758
1533.00  -6.08476031   1.46268811
1534.00  -6.09751688   1.46551220
1535.00  -6.11028107   1.46833985
1536.00  -6.12305287   1.47117105
1537.00  -6.13583229   1.47400581
1538.00  -6.14861932   1.47684414
1539.00  -6.16141397   1.47968602
1540.00  -6.17421623   1.48253148
1541.00  -6.18702610   1.48538050
1542.00  -6.19984358   1.48823309
1543.00  -6.21266867   1.49108925
1544.00  -6.22550136   1.49394898
1545.00  -6.23834166   1.49681229
1546.00  -6.25118956   1.49967918
1547.00  -6.26404507   1.50254964
1548.00  -6.27690818   1.50542369
1549.00  -6.28977888   1.50830132
1550.00  -6.30265719   1.51118254
1551.00  -6.31554309   1.51406734
1552.00  -6.32843659   1.51695573
1553.00  -6.34133769   1.51984772
1554.00  -6.35424637   1.52274330
1555.00  -6.36716265   1.52564247
1556.00  -6.38008652   1.52854524
1557.00  -6.39301798   1.53145161
1558.00  -6.40595703   1.53436158
1559.00  -6.41890366   1.53727515
1560.00  -6.43185788   1.54019233
1561.00  -6.44481969   1.54311311
1562.00  -6.45778908   1.54603751
1563.00  -6.47076604   1.54896551
1564.00  -6.48375059   1.55189713
1565.00  -6.49674272   1.55483237
1566.00  -6.50974242   1.55777122
1567.00  -6.52274970   1.56071369
1568.00  -6.53576456   1.56365978
1569.00  -6.54878699   1.56660949
1570.00  -6.56181699   1.56956283
1571.00  -6.57485456   1.57251979
1572.00  -6.58789970   1.57548039
1573.00  -6.60095241   1.57844461
1574.00  -6.61401269   1.58141247
1575.00  -6.62708053   1.58438396
1576.00  -6.64015594   1.58735909
1577.00  -6.65323890   1.59033786
1578.00  -6.66632943   1.59332026
1579.00  -6.67942752   1.59630631
1580.00  -6.69253317   1.59929601
1581.00  -6.70564638   1.60228935
1582.00  -6.71876714   1.60528634
1583.00  -6.73189546   1.60828698
1584.00  -6.74503133   1.61129127
1585.00  -6.75817475   1.61429922
1586.00  -6.77132573   1.61731082
1587.00  -6.78448425   1.62032609
1588.00  -6.79765032   1.62334501
1589.00  -6.81082394   1.62636759
1590.00  -6.82400510   1.62939384
1591.00  -6.83719380   1.63242375
1592.00  -6.85039005   1.63545734
1593.00  -6.86359384   1.63849459
1594.00  -6.87680517   1.64153551
1595.00  -6.89002404   1.64458011
1596.00  -6.90325045   1.64762838
1597.00  -6.91648439   1.65068034
1598.00  -6.92972587   1.65373597
1599.00  -6.94297488   1.65679528
1600.00  -6.95623142   1.65985828
1601.00  -6.96949549   1.66292496
1602.00  -6.98276709   1.66599533
1603.00  -6.99604622   1.66906939
1604.00  -7.00933287   1.67214714
1605.00  -7.02262705   1.67522859
1606.00  -7.03592875   1.67831373
1607.00  -7.04923798   1.68140257
1608.00  -7.06255473   1.68449510
1609.00  -7.07587899   1.68759134
1610.00  -7.08921078   1.69069128
1611.00  -7.10255008   1.69379493
1612.00  -7.11589690   1.69690228
1613.00  -7.12925123   1.70001334
1614.00  -7.14261307   1.70312812
1615.00  -7.15598243   1.70624660
1616.00  -7.16935929   1.70936881
1617.00  -7.18274366   1.71249472
1618.00  -7.19613555   1.71562436
1619.00  -7.20953493   1.71875772
1620.00  -7.22294182   1.72189480
1621.00  -7.23635622   1.72503560
1622.00  -7.24977812   1.72818013
1623.00  -7.26320751   1.73132839
1624.00  -7.27664441   1.73448038
1625.00  -7.29008880   1.73763611
1626.00  -7.30354069   1.74079556
1627.00  -7.31700008   1.74395876
1628.00  -7.33046696   1.74712569
1629.00  -7.34394133   1.75029636
1630.00  -7.35742319   1.75347077
1631.00  -7.37091254   1.75664893
1632.00  -7.38440938   1.75983083
1633.00  -7.39791371   1.76301648
1634.00  -7.41142552   1.76620588
1635.00  -7.42494482   1.76939903
1636.00  -7.43847160   1.77259594
1637.00  -7.45200586   1.77579660
1638.00  -7.46554759   1.77900102
1639.00  -7.47909681   1.78220919
1640.00  -7.49265351   1.78542113
1641.00  -7.50621768   1.78863684
1642.00  -7.51978932   1.79185630
1643.00  -7.53336844   1.79507954
1644.00  -7.54695503   1.79830654
1645.00  -7.56054909   1.80153731
1646.00  -7.57415062   1.80477186
1647.00  -7.58775962   1.80801018
1648.00  -7.60137608   1.81125228
1649.00  -7.61500001   1.81449816
1650.00  -7.62863140   1.81774782
1651.00  -7.64227025   1.82100126
1652.00  -7.65591656   1.82425848
1653.00  -7.66957033   1.82751949
1654.00  -7.68323156   1.83078429
1655.00  -7.69690025   1.83405288
1656.00  -7.71057639   1.83732526
1657.00  -7.72425998   1.84060144
1658.00  -7.73795103   1.84388141
1659.00  -7.75164952   1.84716518
1660.00  -7.76535547   1.85045275
1661.00  -7.77906886   1.85374412
1662.00  -7.79278971   1.85703929
1663.00  -7.80651799   1.86033827
1664.00  -7.82025372   1.86364106
1665.00  -7.83399689   1.86694765
1666.00  -7.84774751   1.87025806
1667.00  -7.86150556   1.87357228
1668.00  -7.87527105   1.87689031
1669.00  -7.88904398   1.88021217
1670.00  -7.90282434   1.88353784
1671.00  -7.91661214   1.88686733
1672.00  -7.93040737   1.89020064
1673.00  -7.94421003   1.89353778
1674.00  -7.95802012   1.89687875
1675.00  -7.97183764   1.90022354
1676.00  -7.98566259   1.90357216
1677.00  -7.99949496   1.90692462
1678.00  -8.01333476   1.91028091
1679.00  -8.02718198   1.91364104
1680.00  -8.04103662   1.91700500
1681.00  -8.05489868   1.92037280
1682.00  -8.06876815   1.92374445
1683.00  -8.08264505   1.92711994
1684.00  -8.09652936   1.93049927
1685.00  -8.11042109   1.93388245
1686.00  -8.12432023   1.93726949
1687.00  -8.13822678   1.94066037
1688.00  -8.15214074   1.94405510
1689.00  -8.16606211   1.94745369
1690.00  -8.17999089   1.95085614
1691.00  -8.19392707   1.95426245
1692.00  -8.20787066   1.95767261
1693.00  -8.22182165   1.96108664
1694.00  -8.23578004   1.96450454
1695.00  -8.24974583   1.96792630
1696.00  -8.26371902   1.97135192
1697.00  -8.27769961   1.97478142
1698.00  -8.29168759   1.97821479
1699.00  -8.30568297   1.98165204
1700.00  -8.31968575   1.98509316
1701.00  -8.33369591   1.98853816
1702.00  -8.34771346   1.99198703
1703.00  -8.36173841   1.99543979
1704.00  -8.37577074   1.99889643
1705.00  -8.38981045   2.00235696
1706.00  -8.40385755   2.00582138
1707.00  -8.41791204   2.00928968
1708.00  -8.43197391   2.01276187
1709.00  -8.44604315   2.01623796
1710.00  -8.46011978   2.01971794
1711.00  -8.47420378   2.02320182
1712.00  -8.48829516   2.02668960
1713.00  -8.50239391   2.03018127
1714.00  -8.51650004   2.03367685
1715.00  -8.53061354   2.03717634
1716.00  -8.54473441   2.04067973
1717.00  -8.55886265   2.04418702
1718.00  -8.57299825   2.04769823
1719.00  -8.58714122   2.05121335
1720.00  -8.60129156   2.05473238
1721.00  -8.61544926   2.05825533
1722.00  -8.62961432   2.06178219
1723.00  -8.64378674   2.06531297
1724.00  -8.65796653   2.06884768
1725.00  -8.67215366   2.07238631
1726.00  -8.68634816   2.07592886
1727.00  -8.70055001   2.07947534
1728.00  -8.71475921   2.08302574
1729.00  -8.72897576   2.08658008
1730.00  -8.74319967   2.09013835
1731.00  -8.75743092   2.09370055
1732.00  -8.77166952   2.09726669
1733.00  -8.78591547   2.10083677
1734.00  -8.80016876   2.10441079
1735.00  -8.81442940   2.10798874
1736.00  -8.82869737   2.11157065
1737.00  -8.84297269   2.11515649
1738.00  -8.85725535   2.11874629
1739.00  -8.87154534   2.12234003
1740.00  -8.88584267   2.12593772
1741.00  -8.90014733   2.12953937
1742.00  -8.91445933   2.13314497
1743.00  -8.92877866   2.13675453
1744.00  -8.94310531   2.14036804
1745.00  -8.95743930   2.14398552
1746.00  -8.97178061   2.14760696
1747.00  -8.98612925   2.15123236
1748.00  -9.00048522   2.15486173
1749.00  -9.01484851   2.15849506
1750.00  -9.02921912   2.16213237
1751.00  -9.04359704   2.16577364
1752.00  -9.05798229   2.16941889
1753.00  -9.07237486   2.17306812
1754.00  -9.08677474   2.17672132
1755.00  -9.10118193   2.18037850
1756.00  -9.11559644   2.18403966
1757.00  -9.13001826   2.18770480
1758.00  -9.14444739   2.19137393
1759.00  -9.15888382   2.19504704
1760.00  -9.17332757   2.19872414
1761.00  -9.18777862   2.20240523
1762.00  -9.20223697   2.20609031
1763.00  -9.21670263   2.20977939
1764.00  -9.23117559   2.21347246
1765.00  -9.24565584   2.21716953
1766.00  -9.26014340   2.22087060
1767.00  -9.27463825   2.22457567
1768.00  -9.28914040   2.22828474
1769.00  -9.30364984   2.23199781
1770.00  -9.31816657   2.23571490
1771.00  -9.33269060   2.23943599
1772.00  -9.34722191   2.24316109
1773.00  -9.36176052   2.24689020
1774.00  -9.37630640   2.25062333
1775.00  -9.39085958   2.25436047
1776.00  -9.40542004   2.25810163
1777.00  -9.41998778   2.26184681
1778.00  -9.43456280   2.26559601
1779.00  -9.44914510   2.26934923
1780.00  -9.46373467   2.27310648
1781.00  -9.47833153   2.27686776
1782.00  -9.49293566   2.28063306
1783.00  -9.50754706   2.28440240
1784.00  -9.52216573   2.28817576
1785.00  -9.53679168   2.29195316
1786.00  -9.55142489   2.29573460
1787.00  -9.56606537   2.29952007
1788.00  -9.58071312   2.30330959
1789.00  -9.59536813   2.30710314
1790.00  -9.61003041   2.31090074
1791.00  -9.62469994   2.31470238
1792.00  -9.63937674   2.31850807
1793.00  -9.65406079   2.32231781
1794.00  -9.66875211   2.32613160
1795.00  -9.68345067   2.32994944
1796.00  -9.69815650   2.33377133
1797.00  -9.71286957   2.33759729
1798.00  -9.72758990   2.34142730
1799.00  -9.74231747   2.34526136
1800.00  -9.75705230   2.34909949
1801.00  -9.77179437   2.35294169
1802.00  -9.78654369   2.35678795
1803.00  -9.80130025   2.36063827
1804.00  -9.81606405   2.36449267
1805.00  -9.83083509   2.36835113
1806.00  -9.84561338   2.37221367
1807.00  -9.86039890   2.37608028
1808.00  -9.87519166   2.37995097
1809.00  -9.88999165   2.38382573
1810.00  -9.90479888   2.38770458
1811.00  -9.91961334   2.39158751
1812.00  -9.93443502   2.39547452
1813.00  -9.94926394   2.39936561
1814.00  -9.96410009   2.40326079
1815.00  -9.97894346   2.40716006
1816.00  -9.99379406   2.41106343
1817.00 -10.00865188   2.41497088
1818.00 -10.02351692   2.41888243
1819.00 -10.03838918   2.42279807
1820.00 -10.05326866   2.42671781
1821.00 -10.06815536   2.43064165
1822.00 -10.08304927   2.43456960
1823.00 -10.09795040   2.43850164
1824.00 -10.11285874   2.44243779
1825.00 -10.12777429   2.44637805
1826.00 -10.14269705   2.45032242
1827.00 -10.15762702   2.45427090
1828.00 -10.17256419   2.45822349
1829.00 -10.18750858   2.46218019
1830.00 -10.20246016   2.46614101
1831.00 -10.21741895   2.47010595
1832.00 -10.23238493   2.47407500
1833.00 -10.24735812   2.47804818
1834.00 -10.26233851   2.48202548
1835.00 -10.27732609   2.48600691
1836.00 -10.29232086   2.48999246
1837.00 -10.30732283   2.49398214
1838.00 -10.32233199   2.49797595
1839.00 -10.33734834   2.50197390
1840.00 -10.35237188   2.50597597
1841.00 -10.36740261   2.50998219
1842.00 -10.38244052   2.51399254
1843.00 -10.39748562   2.51800703
1844.00 -10.41253790   2.52202566
1845.00 -10.42759736   2.52604843
1846.00 -10.44266400   2.53007535
1847.00 -10.45773782   2.53410641
1848.00 -10.47281882   2.53814163
1849.00 -10.48790699   2.54218099
1850.00 -10.50300233   2.54622450
1851.00 -10.51810485   2.55027217
1852.00 -10.53321454   2.55432400
1853.00 -10.54833140   2.55837998
1854.00 -10.56345542   2.56244012
1855.00 -10.57858661   2.56650442
1856.00 -10.59372497   2.57057288
1857.00 -10.60887049   2.57464551
1858.00 -10.62402317   2.57872230
1859.00 -10.63918301   2.58280326
1860.00 -10.65435001   2.58688840
1861.00 -10.66952416   2.59097770
1862.00 -10.68470547   2.59507118
1863.00 -10.69989394   2.59916883
1864.00 -10.71508956   2.60327065
1865.00 -10.73029233   2.60737666
1866.00 -10.74550225   2.61148685
1867.00 -10.76071931   2.61560122
1868.00 -10.77594353   2.61971977
1869.00 -10.79117489   2.62384251
1870.00 -10.80641339   2.62796944
1871.00 -10.82165903   2.63210055
1872.00 -10.83691182   2.63623586
1873.00 -10.85217174   2.64037536
1874.00 -10.86743880   2.64451905
1875.00 -10.88271300   2.64866694
1876.00 -10.89799433   2.65281903
1877.00 -10.91328279   2.65697532
1878.00 -10.92857839   2.66113581
1879.00 -10.94388111   2.66530050
1880.00 -10.95919097   2.66946940
1881.00 -10.97450795   2.67364251
1882.00 -10.98983205   2.67781982
1883.00 -11.00516328   2.68200135
1884.00 -11.02050163   2.68618709
1885.00 -11.03584711   2.69037704
1886.00 -11.05119970   2.69457120
1887.00 -11.06655941   2.69876959
1888.00 -11.08192623   2.70297219
1889.00 -11.09730017   2.70717902
1890.00 -11.11268122   2.71139007
1891.00 -11.12806939   2.71560534
1892.00 -11.14346466   2.71982484
1893.00 -11.15886704   2.72404857
1894.00 -11.17427653   2.72827653
1895.00 -11.18969312   2.73250872
1896.00 -11.20511682   2.73674514
1897.00 -11.22054762   2.74098580
1898.00 -11.23598552   2.74523069
1899.00 -11.25143053   2.74947983
1900.00 -11.26688262   2.75373320
1901.00 -11.28234182   2.75799082
1902.00 -11.29780811   2.76225268
1903.00 -11.31328149   2.76651878
1904.00 -11.32876196   2.77078914
1905.00 -11.34424953   2.77506374
1906.00 -11.35974418   2.77934259
1907.00 -11.37524592   2.78362570
1908.00 -11.39075474   2.78791306
1909.00 -11.40627065   2.79220468
1910.00 -11.42179364   2.79650056
1911.00 -11.43732371   2.80080069
1912.00 -11.45286086   2.80510509
1913.00 -11.46840509   2.80941375
1914.00 -11.48395640   2.81372667
1915.00 -11.49951478   2.81804387
1916.00 -11.51508023   2.82236533
1917.00 -11.53065275   2.82669106
1918.00 -11.54623235   2.83102106
1919.00 -11.56181901   2.83535534
1920.00 -11.57741274   2.83969389
1921.00 -11.59301353   2.84403672
1922.00 -11.60862139   2.84838383
1923.00 -11.62423631   2.85273521
1924.00 -11.63985829   2.85709089
1925.00 -11.65548733   2.86145084
1926.00 -11.67112343   2.86581508
1927.00 -11.68676659   2.87018361
1928.00 -11.70241679   2.87455643
1929.00 -11.71807406   2.87893354
1930.00 -11.73373837   2.88331494
1931.00 -11.74940973   2.88770064
1932.00 -11.76508814   2.89209063
1933.00 -11.78077360   2.89648492
1934.00 -11.79646611   2.90088352
1935.00 -11.81216565   2.90528641
1936.00 -11.82787224   2.90969360
1937.00 -11.84358587   2.91410511
1938.00 -11.85930654   2.91852091
1939.00 -11.87503425   2.92294103
1940.00 -11.89076899   2.92736546
1941.00 -11.90651076   2.93179420
1942.00 -11.92225957   2.93622725
1943.00 -11.93801541   2.94066461
1944.00 -11.95377828   2.94510630
1945.00 -11.96954818   2.94955230
1946.00 -11.98532511   2.95400263
1947.00 -12.00110906   2.95845727
1948.00 -12.01690003   2.96291624
1949.00 -12.03269802   2.96737954
1950.00 -12.04850304   2.97184716
1951.00 -12.06431507   2.97631912
1952.00 -12.08013412   2.98079540
1953.00 -12.09596019   2.98527602
1954.00 -12.11179327   2.98976097
1955.00 -12.12763336   2.99425025
1956.00 -12.14348047   2.99874388
1957.00 -12.15933458   3.00324184
1958.00 -12.17519570   3.00774415
1959.00 -12.19106383   3.01225079
1960.00 -12.20693896   3.01676179
1961.00 -12.22282110   3.02127712
1962.00 -12.23871024   3.02579681
1963.00 -12.25460637   3.03032085
1964.00 -12.27050951   3.03484924
1965.00 -12.28641964   3.03938198
1966.00 -12.30233677   3.04391907
1967.00 -12.31826089   3.04846053
1968.00 -12.33419200   3.05300634
1969.00 -12.35013011   3.05755651
1970.00 -12.36607520   3.06211104
1971.00 -12.38202728   3.06666994
1972.00 -12.39798634   3.07123320
1973.00 -12.41395239   3.07580083
1974.00 -12.42992543   3.08037283
1975.00 -12.44590544   3.08494919
1976.00 -12.46189244   3.08952993
1977.00 -12.47788641   3.09411505
1978.00 -12.49388735   3.09870453
1979.00 -12.50989528   3.10329840
1980.00 -12.52591017   3.10789664
1981.00 -12.54193204   3.11249927
1982.00 -12.55796088   3.11710628
1983.00 -12.57399668   3.12171767
1984.00 -12.59003946   3.12633344
1985.00 -12.60608920   3.13095361
1986.00 -12.62214590   3.13557816
1987.00 -12.63820956   3.14020710
1988.00 -12.65428019   3.14484044
1989.00 -12.67035777   3.14947817
1990.00 -12.68644231   3.15412029
1991.00 -12.70253381   3.15876682
1992.00 -12.71863226   3.16341774
1993.00 -12.73473767   3.16807306
1994.00 -12.75085002   3.17273279
1995.00 -12.76696933   3.17739692
1996.00 -12.78309558   3.18206545
1997.00 -12.79922878   3.18673840
1998.00 -12.81536892   3.19141575
1999.00 -12.83151601   3.19609751
2000.00 -12.84767004   3.20078369
