wavelength(nm)         real         imag
200.00   3.82840506   0.00136831
201.00   3.82768758   0.00138893
202.00   3.82696654   0.00140976
203.00   3.82624191   0.00143080
204.00   3.82551372   0.00145204
205.00   3.82478195   0.00147349
206.00   3.82404661   0.00149516
207.00   3.82330770   0.00151703
208.00   3.82256522   0.00153912
209.00   3.82181916   0.00156142
210.00   3.82106953   0.00158393
211.00   3.82031633   0.00160666
212.00   3.81955955   0.00162960
213.00   3.81879921   0.00165277
214.00   3.81803529   0.00167615
215.00   3.81726780   0.00169975
216.00   3.81649673   0.00172357
217.00   3.81572210   0.00174761
218.00   3.81494389   0.00177188
219.00   3.81416211   0.00179637
220.00   3.81337676   0.00182108
221.00   3.81258784   0.00184602
222.00   3.81179535   0.00187118
223.00   3.81099928   0.00189658
224.00   3.81019965   0.00192220
225.00   3.80939644   0.00194805
226.00   3.80858966   0.00197413
227.00   3.80777931   0.00200044
228.00   3.80696539   0.00202699
229.00   3.80614790   0.00205377
230.00   3.80532684   0.00208078
231.00   3.80450220   0.00210803
232.00   3.80367400   0.00213552
233.00   3.80284223   0.00216324
234.00   3.80200688   0.00219121
235.00   3.80116797   0.00221941
236.00   3.80032548   0.00224785
237.00   3.79947943   0.00227654
238.00   3.79862980   0.00230547
239.00   3.79777661   0.00233464
240.00   3.79691984   0.00236406
241.00   3.79605951   0.00239372
242.00   3.79519561   0.00242363
243.00   3.79432813   0.00245379
244.00   3.79345709   0.00248420
245.00   3.79258248   0.00251486
246.00   3.79170429   0.00254576
247.00   3.79082254   0.00257693
248.00   3.78993722   0.00260834
249.00   3.78904833   0.00264001
250.00   3.78815587   0.00267193
251.00   3.78725985   0.00270411
252.00   3.78636025   0.00273655
253.00   3.78545709   0.00276924
254.00   3.78455035   0.00280219
255.00   3.78364005   0.00283541
256.00   3.78272618   0.00286888
257.00   3.78180875   0.00290262
258.00   3.78088774   0.00293662
259.00   3.77996317   0.00297089
260.00   3.77903502   0.00300542
261.00   3.77810331   0.00304022
262.00   3.77716804   0.00307528
263.00   3.77622919   0.00311061
264.00   3.77528678   0.00314621
265.00   3.77434080   0.00318209
266.00   3.77339125   0.00321823
267.00   3.77243814   0.00325465
268.00   3.77148146   0.00329134
269.00   3.77052121   0.00332830
270.00   3.76955739   0.00336554
271.00   3.76859001   0.00340306
272.00   3.76761906   0.00344085
273.00   3.76664455   0.00347893
274.00   3.76566646   0.00351728
275.00   3.76468482   0.00355591
276.00   3.76369960   0.00359483
277.00   3.76271082   0.00363403
278.00   3.76171847   0.00367351
279.00   3.76072256   0.00371327
280.00   3.75972308   0.00375333
281.00   3.75872004   0.00379366
282.00   3.75771343   0.00383429
283.00   3.75670326   0.00387521
284.00   3.75568951   0.00391641
285.00   3.75467221   0.00395791
286.00   3.75365134   0.00399969
287.00   3.75262690   0.00404177
288.00   3.75159890   0.00408415
289.00   3.75056734   0.00412682
290.00   3.74953221   0.00416978
291.00   3.74849351   0.00421305
292.00   3.74745125   0.00425661
293.00   3.74640543   0.00430047
294.00   3.74535604   0.00434462
295.00   3.74430309   0.00438908
296.00   3.74324657   0.00443385
297.00   3.74218649   0.00447891
298.00   3.74112285   0.00452428
299.00   3.74005564   0.00456996
300.00   3.73898487   0.00461594
301.00   3.73791053   0.00466222
302.00   3.73683264   0.00470882
303.00   3.73575118   0.00475573
304.00   3.73466615   0.00480294
305.00   3.73357757   0.00485047
306.00   3.73248542   0.00489831
307.00   3.73138970   0.00494646
308.00   3.73029043   0.00499493
309.00   3.72918759   0.00504371
310.00   3.72808119   0.00509280
311.00   3.72697123   0.00514222
312.00   3.72585770   0.00519195
313.00   3.72474062   0.00524201
314.00   3.72361997   0.00529238
315.00   3.72249576   0.00534307
316.00   3.72136799   0.00539409
317.00   3.72023665   0.00544543
318.00   3.71910176   0.00549710
319.00   3.71796330   0.00554909
320.00   3.71682129   0.00560140
321.00   3.71567571   0.00565405
322.00   3.71452657   0.00570702
323.00   3.71337387   0.00576032
324.00   3.71221761   0.00581396
325.00   3.71105779   0.00586792
326.00   3.70989441   0.00592222
327.00   3.70872747   0.00597685
328.00   3.70755697   0.00603181
329.00   3.70638290   0.00608712
330.00   3.70520528   0.00614275
331.00   3.70402410   0.00619873
332.00   3.70283936   0.00625504
333.00   3.70165106   0.00631170
334.00   3.70045920   0.00636869
335.00   3.69926378   0.00642603
336.00   3.69806481   0.00648370
337.00   3.69686227   0.00654173
338.00   3.69565617   0.00660009
339.00   3.69444652   0.00665881
340.00   3.69323331   0.00671787
341.00   3.69201653   0.00677728
342.00   3.69079620   0.00683703
343.00   3.68957232   0.00689714
344.00   3.68834487   0.00695760
345.00   3.68711387   0.00701840
346.00   3.68587931   0.00707957
347.00   3.68464119   0.00714108
348.00   3.68339951   0.00720295
349.00   3.68215428   0.00726518
350.00   3.68090548   0.00732776
351.00   3.67965314   0.00739071
352.00   3.67839723   0.00745401
353.00   3.67713777   0.00751767
354.00   3.67587475   0.00758169
355.00   3.67460818   0.00764607
356.00   3.67333804   0.00771082
357.00   3.67206436   0.00777593
358.00   3.67078711   0.00784141
359.00   3.66950631   0.00790725
360.00   3.66822196   0.00797346
361.00   3.66693404   0.00804004
362.00   3.66564258   0.00810698
363.00   3.66434755   0.00817430
364.00   3.66304898   0.00824199
365.00   3.66174684   0.00831005
366.00   3.66044116   0.00837848
367.00   3.65913191   0.00844729
368.00   3.65781912   0.00851647
369.00   3.65650276   0.00858603
370.00   3.65518286   0.00865596
371.00   3.65385940   0.00872628
372.00   3.65253238   0.00879697
373.00   3.65120181   0.00886805
374.00   3.64986769   0.00893950
375.00   3.64853001   0.00901134
376.00   3.64718878   0.00908356
377.00   3.64584400   0.00915617
378.00   3.64449566   0.00922916
379.00   3.64314377   0.00930253
380.00   3.64178833   0.00937630
381.00   3.64042934   0.00945045
382.00   3.63906679   0.00952499
383.00   3.63770069   0.00959993
384.00   3.63633103   0.00967525
385.00   3.63495783   0.00975097
386.00   3.63358107   0.00982708
387.00   3.63220076   0.00990358
388.00   3.63081690   0.00998048
389.00   3.62942949   0.01005778
390.00   3.62803852   0.01013547
391.00   3.62664401   0.01021356
392.00   3.62524594   0.01029206
393.00   3.62384432   0.01037095
394.00   3.62243915   0.01045024
395.00   3.62103044   0.01052994
396.00   3.61961817   0.01061004
397.00   3.61820235   0.01069054
398.00   3.61678298   0.01077145
399.00   3.61536005   0.01085277
400.00   3.61393358   0.01093450
401.00   3.61250356   0.01101663
402.00   3.61106999   0.01109917
403.00   3.60963288   0.01118213
404.00   3.60819221   0.01126549
405.00   3.60674799   0.01134927
406.00   3.60530022   0.01143346
407.00   3.60384891   0.01151807
408.00   3.60239404   0.01160309
409.00   3.60093563   0.01168853
410.00   3.59947367   0.01177439
411.00   3.59800816   0.01186066
412.00   3.59653910   0.01194736
413.00   3.59506650   0.01203447
414.00   3.59359034   0.01212201
415.00   3.59211064   0.01220997
416.00   3.59062739   0.01229836
417.00   3.58914060   0.01238717
418.00   3.58765026   0.01247640
419.00   3.58615637   0.01256606
420.00   3.58465893   0.01265615
421.00   3.58315795   0.01274667
422.00   3.58165342   0.01283762
423.00   3.58014535   0.01292900
424.00   3.57863372   0.01302081
425.00   3.57711856   0.01311306
426.00   3.57559984   0.01320574
427.00   3.57407759   0.01329885
428.00   3.57255178   0.01339240
429.00   3.57102243   0.01348638
430.00   3.56948954   0.01358081
431.00   3.56795310   0.01367567
432.00   3.56641312   0.01377097
433.00   3.56486959   0.01386672
434.00   3.56332251   0.01396290
435.00   3.56177190   0.01405953
436.00   3.56021774   0.01415661
437.00   3.55866003   0.01425412
438.00   3.55709878   0.01435209
439.00   3.55553399   0.01445050
440.00   3.55396565   0.01454936
441.00   3.55239377   0.01464867
442.00   3.55081835   0.01474842
443.00   3.54923939   0.01484863
444.00   3.54765688   0.01494929
445.00   3.54607083   0.01505041
446.00   3.54448123   0.01515198
447.00   3.54288810   0.01525400
448.00   3.54129142   0.01535648
449.00   3.53969120   0.01545942
450.00   3.53808744   0.01556281
451.00   3.53648014   0.01566667
452.00   3.53486930   0.01577098
453.00   3.53325491   0.01587576
454.00   3.53163699   0.01598099
455.00   3.53001552   0.01608670
456.00   3.52839051   0.01619286
457.00   3.52676197   0.01629949
458.00   3.52512988   0.01640659
459.00   3.52349425   0.01651415
460.00   3.52185508   0.01662218
461.00   3.52021238   0.01673068
462.00   3.51856613   0.01683965
463.00   3.51691634   0.01694910
464.00   3.51526302   0.01705901
465.00   3.51360615   0.01716940
466.00   3.51194575   0.01728026
467.00   3.51028181   0.01739160
468.00   3.50861432   0.01750341
469.00   3.50694331   0.01761570
470.00   3.50526875   0.01772847
471.00   3.50359065   0.01784172
472.00   3.50190902   0.01795545
473.00   3.50022385   0.01806966
474.00   3.49853514   0.01818435
475.00   3.49684290   0.01829953
476.00   3.49514712   0.01841519
477.00   3.49344780   0.01853133
478.00   3.49174494   0.01864796
479.00   3.49003855   0.01876508
480.00   3.48832862   0.01888269
481.00   3.48661516   0.01900079
482.00   3.48489816   0.01911937
483.00   3.48317762   0.01923845
484.00   3.48145355   0.01935802
485.00   3.47972594   0.01947808
486.00   3.47799480   0.01959864
487.00   3.47626013   0.01971970
488.00   3.47452191   0.01984125
489.00   3.47278017   0.01996329
490.00   3.47103489   0.02008584
491.00   3.46928607   0.02020888
492.00   3.46753372   0.02033243
493.00   3.46577784   0.02045648
494.00   3.46401843   0.02058103
495.00   3.46225548   0.02070608
496.00   3.46048899   0.02083164
497.00   3.45871898   0.02095770
498.00   3.45694543   0.02108427
499.00   3.45516835   0.02121134
500.00   3.45338773   0.02133893
501.00   3.45160359   0.02146702
502.00   3.44981591   0.02159563
503.00   3.44802470   0.02172474
504.00   3.44622996   0.02185437
505.00   3.44443168   0.02198451
506.00   3.44262988   0.02211517
507.00   3.44082454   0.02224634
508.00   3.43901568   0.02237803
509.00   3.43720328   0.02251023
510.00   3.43538735   0.02264296
511.00   3.43356789   0.02277620
512.00   3.43174490   0.02290996
513.00   3.42991839   0.02304425
514.00   3.42808834   0.02317906
515.00   3.42625476   0.02331439
516.00   3.42441765   0.02345024
517.00   3.42257702   0.02358662
518.00   3.42073285   0.02372353
519.00   3.41888516   0.02386097
520.00   3.41703394   0.02399893
521.00   3.41517919   0.02413742
522.00   3.41332091   0.02427645
523.00   3.41145910   0.02441600
524.00   3.40959377   0.02455609
525.00   3.40772490   0.02469671
526.00   3.40585251   0.02483787
527.00   3.40397660   0.02497956
528.00   3.40209716   0.02512178
529.00   3.40021419   0.02526455
530.00   3.39832769   0.02540785
531.00   3.39643767   0.02555169
532.00   3.39454412   0.02569608
533.00   3.39264704   0.02584100
534.00   3.39074644   0.02598647
535.00   3.38884232   0.02613248
536.00   3.38693467   0.02627903
537.00   3.38502349   0.02642613
538.00   3.38310879   0.02657378
539.00   3.38119056   0.02672198
540.00   3.37926881   0.02687072
541.00   3.37734354   0.02702001
542.00   3.37541474   0.02716985
543.00   3.37348242   0.02732025
544.00   3.37154657   0.02747120
545.00   3.36960720   0.02762270
546.00   3.36766431   0.02777475
547.00   3.36571790   0.02792736
548.00   3.36376796   0.02808053
549.00   3.36181450   0.02823425
550.00   3.35985751   0.02838853
551.00   3.35789701   0.02854338
552.00   3.35593298   0.02869878
553.00   3.35396543   0.02885474
554.00   3.35199436   0.02901127
555.00   3.35001977   0.02916836
556.00   3.34804166   0.02932601
557.00   3.34606003   0.02948423
558.00   3.34407487   0.02964302
559.00   3.34208620   0.02980237
560.00   3.34009401   0.02996230
561.00   3.33809829   0.03012279
562.00   3.33609906   0.03028385
563.00   3.33409630   0.03044548
564.00   3.33209003   0.03060769
565.00   3.33008024   0.03077047
566.00   3.32806693   0.03093382
567.00   3.32605010   0.03109775
568.00   3.32402975   0.03126226
569.00   3.32200589   0.03142734
570.00   3.31997850   0.03159300
571.00   3.31794760   0.03175924
572.00   3.31591318   0.03192606
573.00   3.31387524   0.03209347
574.00   3.31183379   0.03226145
575.00   3.30978882   0.03243002
576.00   3.30774033   0.03259917
577.00   3.30568833   0.03276891
578.00   3.30363281   0.03293924
579.00   3.30157377   0.03311015
580.00   3.29951122   0.03328165
581.00   3.29744515   0.03345374
582.00   3.29537557   0.03362642
583.00   3.29330247   0.03379969
584.00   3.29122586   0.03397355
585.00   3.28914573   0.03414801
586.00   3.28706209   0.03432306
587.00   3.28497493   0.03449871
588.00   3.28288426   0.03467495
589.00   3.28079008   0.03485179
590.00   3.27869238   0.03502923
591.00   3.27659117   0.03520727
592.00   3.27448645   0.03538591
593.00   3.27237821   0.03556515
594.00   3.27026646   0.03574499
595.00   3.26815120   0.03592544
596.00   3.26603243   0.03610649
597.00   3.26391014   0.03628814
598.00   3.26178434   0.03647040
599.00   3.25965504   0.03665327
600.00   3.25752222   0.03683675
601.00   3.25538588   0.03702084
602.00   3.25324604   0.03720553
603.00   3.25110269   0.03739084
604.00   3.24895583   0.03757676
605.00   3.24680545   0.03776329
606.00   3.24465157   0.03795044
607.00   3.24249418   0.03813820
608.00   3.24033328   0.03832658
609.00   3.23816887   0.03851558
610.00   3.23600095   0.03870519
611.00   3.23382952   0.03889543
612.00   3.23165458   0.03908628
613.00   3.22947614   0.03927775
614.00   3.22729419   0.03946985
615.00   3.22510873   0.03966257
616.00   3.22291976   0.03985592
617.00   3.22072728   0.04004988
618.00   3.21853130   0.04024448
619.00   3.21633181   0.04043970
620.00   3.21412882   0.04063555
621.00   3.21192231   0.04083203
622.00   3.20971231   0.04102914
623.00   3.20749879   0.04122688
624.00   3.20528177   0.04142526
625.00   3.20306125   0.04162426
626.00   3.20083722   0.04182390
627.00   3.19860969   0.04202418
628.00   3.19637865   0.04222509
629.00   3.19414410   0.04242664
630.00   3.19190606   0.04262883
631.00   3.18966450   0.04283165
632.00   3.18741945   0.04303512
633.00   3.18517089   0.04323922
634.00   3.18291883   0.04344397
635.00   3.18066326   0.04364936
636.00   3.17840420   0.04385540
637.00   3.17614163   0.04406208
638.00   3.17387556   0.04426940
639.00   3.17160598   0.04447738
640.00   3.16933291   0.04468600
641.00   3.16705633   0.04489527
642.00   3.16477625   0.04510519
643.00   3.16249267   0.04531576
644.00   3.16020559   0.04552698
645.00   3.15791501   0.04573886
646.00   3.15562093   0.04595138
647.00   3.15332335   0.04616457
648.00   3.15102227   0.04637841
649.00   3.14871769   0.04659291
650.00   3.14640961   0.04680806
651.00   3.14409804   0.04702387
652.00   3.14178296   0.04724035
653.00   3.13946438   0.04745748
654.00   3.13714231   0.04767528
655.00   3.13481674   0.04789373
656.00   3.13248767   0.04811286
657.00   3.13015511   0.04833264
658.00   3.12781904   0.04855309
659.00   3.12547948   0.04877421
660.00   3.12313643   0.04899600
661.00   3.12078987   0.04921846
662.00   3.11843982   0.04944158
663.00   3.11608628   0.04966538
664.00   3.11372924   0.04988984
665.00   3.11136870   0.05011498
666.00   3.10900467   0.05034080
667.00   3.10663714   0.05056728
668.00   3.10426612   0.05079445
669.00   3.10189161   0.05102229
670.00   3.09951360   0.05125081
671.00   3.09713209   0.05148000
672.00   3.09474710   0.05170988
673.00   3.09235860   0.05194043
674.00   3.08996662   0.05217167
675.00   3.08757114   0.05240359
676.00   3.08517218   0.05263619
677.00   3.08276971   0.05286948
678.00   3.08036376   0.05310346
679.00   3.07795432   0.05333811
680.00   3.07554138   0.05357346
681.00   3.07312495   0.05380950
682.00   3.07070503   0.05404622
683.00   3.06828162   0.05428364
684.00   3.06585472   0.05452174
685.00   3.06342433   0.05476054
686.00   3.06099045   0.05500003
687.00   3.05855308   0.05524022
688.00   3.05611222   0.05548110
689.00   3.05366787   0.05572268
690.00   3.05122003   0.05596495
691.00   3.04876871   0.05620793
692.00   3.04631389   0.05645160
693.00   3.04385559   0.05669597
694.00   3.04139380   0.05694104
695.00   3.03892852   0.05718682
696.00   3.03645975   0.05743330
697.00   3.03398750   0.05768048
698.00   3.03151176   0.05792837
699.00   3.02903254   0.05817696
700.00   3.02654982   0.05842626
701.00   3.02406363   0.05867627
702.00   3.02157394   0.05892699
703.00   3.01908077   0.05917842
704.00   3.01658412   0.05943056
705.00   3.01408398   0.05968341
706.00   3.01158035   0.05993697
707.00   3.00907324   0.06019125
708.00   3.00656265   0.06044624
709.00   3.00404858   0.06070195
710.00   3.00153102   0.06095837
711.00   2.99900997   0.06121552
712.00   2.99648545   0.06147338
713.00   2.99395744   0.06173196
714.00   2.99142595   0.06199126
715.00   2.98889097   0.06225129
716.00   2.98635252   0.06251203
717.00   2.98381058   0.06277350
718.00   2.98126516   0.06303570
719.00   2.97871626   0.06329862
720.00   2.97616388   0.06356227
721.00   2.97360802   0.06382664
722.00   2.97104868   0.06409174
723.00   2.96848586   0.06435758
724.00   2.96591956   0.06462414
725.00   2.96334978   0.06489144
726.00   2.96077652   0.06515946
727.00   2.95819978   0.06542822
728.00   2.95561956   0.06569772
729.00   2.95303587   0.06596795
730.00   2.95044869   0.06623892
731.00   2.94785804   0.06651062
732.00   2.94526391   0.06678307
733.00   2.94266631   0.06705625
734.00   2.94006522   0.06733017
735.00   2.93746066   0.06760484
736.00   2.93485263   0.06788024
737.00   2.93224112   0.06815639
738.00   2.92962613   0.06843329
739.00   2.92700767   0.06871092
740.00   2.92438573   0.06898931
741.00   2.92176031   0.06926844
742.00   2.91913143   0.06954832
743.00   2.91649906   0.06982895
744.00   2.91386323   0.07011033
745.00   2.91122392   0.07039246
746.00   2.90858113   0.07067535
747.00   2.90593488   0.07095898
748.00   2.90328515   0.07124337
749.00   2.90063195   0.07152852
750.00   2.89797527   0.07181442
751.00   2.89531512   0.07210107
752.00   2.89265150   0.07238849
753.00   2.88998441   0.07267666
754.00   2.88731385   0.07296560
755.00   2.88463982   0.07325529
756.00   2.88196232   0.07354575
757.00   2.87928134   0.07383697
758.00   2.87659690   0.07412895
759.00   2.87390899   0.07442170
760.00   2.87121760   0.07471522
761.00   2.86852275   0.07500950
762.00   2.86582443   0.07530454
763.00   2.86312264   0.07560036
764.00   2.86041738   0.07589695
765.00   2.85770866   0.07619430
766.00   2.85499646   0.07649243
767.00   2.85228080   0.07679133
768.00   2.84956167   0.07709101
769.00   2.84683908   0.07739145
770.00   2.84411302   0.07769268
771.00   2.84138349   0.07799468
772.00   2.83865049   0.07829746
773.00   2.83591403   0.07860101
774.00   2.83317411   0.07890535
775.00   2.83043072   0.07921046
776.00   2.82768386   0.07951636
777.00   2.82493354   0.07982304
778.00   2.82217976   0.08013050
779.00   2.81942251   0.08043875
780.00   2.81666180   0.08074778
781.00   2.81389762   0.08105760
782.00   2.81112999   0.08136820
783.00   2.80835889   0.08167960
784.00   2.80558432   0.08199178
785.00   2.80280630   0.08230475
786.00   2.80002481   0.08261851
787.00   2.79723986   0.08293307
788.00   2.79445145   0.08324841
789.00   2.79165958   0.08356456
790.00   2.78886425   0.08388149
791.00   2.78606546   0.08419922
792.00   2.78326321   0.08451775
793.00   2.78045750   0.08483708
794.00   2.77764833   0.08515720
795.00   2.77483570   0.08547813
796.00   2.77201961   0.08579985
797.00   2.76920006   0.08612238
798.00   2.76637705   0.08644571
799.00   2.76355059   0.08676984
800.00   2.76072067   0.08709478
801.00   2.75788729   0.08742053
802.00   2.75505046   0.08774708
803.00   2.75221017   0.08807443
804.00   2.74936642   0.08840260
805.00   2.74651921   0.08873157
806.00   2.74366855   0.08906136
807.00   2.74081444   0.08939195
808.00   2.73795687   0.08972336
809.00   2.73509584   0.09005558
810.00   2.73223136   0.09038862
811.00   2.72936343   0.09072247
812.00   2.72649204   0.09105714
813.00   2.72361720   0.09139262
814.00   2.72073890   0.09172893
815.00   2.71785715   0.09206605
816.00   2.71497195   0.09240399
817.00   2.71208330   0.09274275
818.00   2.70919119   0.09308234
819.00   2.70629564   0.09342274
820.00   2.70339663   0.09376397
821.00   2.70049417   0.09410603
822.00   2.69758826   0.09444891
823.00   2.69467890   0.09479262
824.00   2.69176608   0.09513716
825.00   2.68884982   0.09548252
826.00   2.68593011   0.09582872
827.00   2.68300695   0.09617574
828.00   2.68008034   0.09652360
829.00   2.67715029   0.09687229
830.00   2.67421678   0.09722181
831.00   2.67127983   0.09757217
832.00   2.66833943   0.09792336
833.00   2.66539558   0.09827539
834.00   2.66244828   0.09862825
835.00   2.65949754   0.09898196
836.00   2.65654335   0.09933650
837.00   2.65358571   0.09969189
838.00   2.65062463   0.10004811
839.00   2.64766011   0.10040518
840.00   2.64469214   0.10076309
841.00   2.64172072   0.10112184
842.00   2.63874586   0.10148144
843.00   2.63576755   0.10184189
844.00   2.63278581   0.10220318
845.00   2.62980061   0.10256532
846.00   2.62681198   0.10292831
847.00   2.62381990   0.10329215
848.00   2.62082438   0.10365684
849.00   2.61782541   0.10402238
850.00   2.61482301   0.10438877
851.00   2.61181716   0.10475602
852.00   2.60880787   0.10512413
853.00   2.60579515   0.10549308
854.00   2.60277898   0.10586290
855.00   2.59975937   0.10623357
856.00   2.59673632   0.10660510
857.00   2.59370983   0.10697749
858.00   2.59067990   0.10735074
859.00   2.58764653   0.10772486
860.00   2.58460972   0.10809983
861.00   2.58156948   0.10847567
862.00   2.57852579   0.10885237
863.00   2.57547867   0.10922994
864.00   2.57242812   0.10960837
865.00   2.56937412   0.10998767
866.00   2.56631669   0.11036784
867.00   2.56325582   0.11074888
868.00   2.56019152   0.11113079
869.00   2.55712378   0.11151356
870.00   2.55405260   0.11189721
871.00   2.55097799   0.11228174
872.00   2.54789994   0.11266713
873.00   2.54481846   0.11305341
874.00   2.54173355   0.11344055
875.00   2.53864520   0.11382858
876.00   2.53555342   0.11421748
877.00   2.53245821   0.11460726
878.00   2.52935956   0.11499792
879.00   2.52625748   0.11538946
880.00   2.52315197   0.11578188
881.00   2.52004303   0.11617519
882.00   2.51693065   0.11656938
883.00   2.51381485   0.11696445
884.00   2.51069561   0.11736041
885.00   2.50757294   0.11775725
886.00   2.50444685   0.11815498
887.00   2.50131732   0.11855360
888.00   2.49818436   0.11895311
889.00   2.49504798   0.11935351
890.00   2.49190816   0.11975480
891.00   2.48876492   0.12015698
892.00   2.48561825   0.12056005
893.00   2.48246815   0.12096402
894.00   2.47931463   0.12136889
895.00   2.47615767   0.12177464
896.00   2.47299729   0.12218130
897.00   2.46983349   0.12258885
898.00   2.46666626   0.12299731
899.00   2.46349560   0.12340666
900.00   2.46032151   0.12381691
901.00   2.45714401   0.12422806
902.00   2.45396307   0.12464012
903.00   2.45077872   0.12505308
904.00   2.44759094   0.12546694
905.00   2.44439973   0.12588171
906.00   2.44120510   0.12629739
907.00   2.43800705   0.12671397
908.00   2.43480558   0.12713146
909.00   2.43160068   0.12754986
910.00   2.42839236   0.12796917
911.00   2.42518062   0.12838939
912.00   2.42196546   0.12881053
913.00   2.41874688   0.12923257
914.00   2.41552488   0.12965553
915.00   2.41229946   0.13007941
916.00   2.40907061   0.13050420
917.00   2.40583835   0.13092991
918.00   2.40260267   0.13135653
919.00   2.39936357   0.13178407
920.00   2.39612105   0.13221254
921.00   2.39287512   0.13264192
922.00   2.38962576   0.13307223
923.00   2.38637299   0.13350345
924.00   2.38311680   0.13393561
925.00   2.37985719   0.13436868
926.00   2.37659417   0.13480268
927.00   2.37332773   0.13523761
928.00   2.37005788   0.13567346
929.00   2.36678461   0.13611025
930.00   2.36350793   0.13654796
931.00   2.36022783   0.13698660
932.00   2.35694431   0.13742617
933.00   2.35365739   0.13786667
934.00   2.35036705   0.13830811
935.00   2.34707329   0.13875048
936.00   2.34377613   0.13919379
937.00   2.34047555   0.13963803
938.00   2.33717155   0.14008321
939.00   2.33386415   0.14052932
940.00   2.33055334   0.14097638
941.00   2.32723911   0.14142437
942.00   2.32392147   0.14187331
943.00   2.32060042   0.14232318
944.00   2.31727597   0.14277400
945.00   2.31394810   0.14322576
946.00   2.31061682   0.14367847
947.00   2.30728214   0.14413212
948.00   2.30394404   0.14458671
949.00   2.30060254   0.14504226
950.00   2.29725763   0.14549875
951.00   2.29390931   0.14595619
952.00   2.29055759   0.14641458
953.00   2.28720245   0.14687392
954.00   2.28384392   0.14733421
955.00   2.28048197   0.14779546
956.00   2.27711662   0.14825766
957.00   2.27374787   0.14872081
958.00   2.27037570   0.14918492
959.00   2.26700014   0.14964999
960.00   2.26362117   0.15011601
961.00   2.26023879   0.15058299
962.00   2.25685302   0.15105094
963.00   2.25346384   0.15151984
964.00   2.25007125   0.15198970
965.00   2.24667527   0.15246052
966.00   2.24327588   0.15293231
967.00   2.23987309   0.15340506
968.00   2.23646690   0.15387878
969.00   2.23305730   0.15435346
970.00   2.22964431   0.15482911
971.00   2.22622791   0.15530573
972.00   2.22280812   0.15578332
973.00   2.21938493   0.15626187
974.00   2.21595833   0.15674140
975.00   2.21252834   0.15722190
976.00   2.20909495   0.15770337
977.00   2.20565816   0.15818581
978.00   2.20221798   0.15866923
979.00   2.19877439   0.15915363
980.00   2.19532741   0.15963900
981.00   2.19187704   0.16012534
982.00   2.18842326   0.16061267
983.00   2.18496609   0.16110097
984.00   2.18150553   0.16159026
985.00   2.17804157   0.16208052
986.00   2.17457421   0.16257177
987.00   2.17110346   0.16306400
988.00   2.16762932   0.16355721
989.00   2.16415178   0.16405141
990.00   2.16067085   0.16454660
991.00   2.15718653   0.16504277
992.00   2.15369881   0.16553993
993.00   2.15020770   0.16603807
994.00   2.14671320   0.16653721
995.00   2.14321531   0.16703734
996.00   2.13971403   0.16753845
997.00   2.13620935   0.16804056
998.00   2.13270129   0.16854367
999.00   2.12918983   0.16904776
1000.00   2.12567499   0.16955286
1001.00   2.12215676   0.17005894
1002.00   2.11863514   0.17056603
1003.00   2.11511012   0.17107411
1004.00   2.11158173   0.17158319
1005.00   2.10804994   0.17209327
1006.00   2.10451477   0.17260436
1007.00   2.10097621   0.17311644
1008.00   2.09743426   0.17362953
1009.00   2.09388892   0.17414362
1010.00   2.09034020   0.17465871
1011.00   2.08678810   0.17517481
1012.00   2.08323261   0.17569191
1013.00   2.07967373   0.17621003
1014.00   2.07611148   0.17672915
1015.00   2.07254583   0.17724928
1016.00   2.06897681   0.17777042
1017.00   2.06540440   0.17829257
1018.00   2.06182860   0.17881573
1019.00   2.05824943   0.17933990
1020.00   2.05466687   0.17986509
1021.00   2.05108093   0.18039130
1022.00   2.04749161   0.18091851
1023.00   2.04389891   0.18144675
1024.00   2.04030283   0.18197600
1025.00   2.03670336   0.18250627
1026.00   2.03310052   0.18303756
1027.00   2.02949430   0.18356988
1028.00   2.02588470   0.18410321
1029.00   2.02227172   0.18463756
1030.00   2.01865537   0.18517294
1031.00   2.01503563   0.18570934
1032.00   2.01141252   0.18624676
1033.00   2.00778603   0.18678522
1034.00   2.00415616   0.18732469
1035.00   2.00052292   0.18786520
1036.00   1.99688630   0.18840674
1037.00   1.99324631   0.18894930
1038.00   1.98960294   0.18949289
1039.00   1.98595620   0.19003752
1040.00   1.98230608   0.19058318
1041.00   1.97865259   0.19112987
1042.00   1.97499572   0.19167760
1043.00   1.97133548   0.19222636
1044.00   1.96767187   0.19277615
1045.00   1.96400488   0.19332699
1046.00   1.96033453   0.19387886
1047.00   1.95666080   0.19443177
1048.00   1.95298370   0.19498572
1049.00   1.94930323   0.19554071
1050.00   1.94561939   0.19609674
1051.00   1.94193218   0.19665382
1052.00   1.93824160   0.19721194
1053.00   1.93454765   0.19777110
1054.00   1.93085033   0.19833131
1055.00   1.92714964   0.19889256
1056.00   1.92344559   0.19945486
1057.00   1.91973817   0.20001821
1058.00   1.91602738   0.20058261
1059.00   1.91231322   0.20114806
1060.00   1.90859570   0.20171456
1061.00   1.90487481   0.20228211
1062.00   1.90115055   0.20285071
1063.00   1.89742293   0.20342037
1064.00   1.89369194   0.20399108
1065.00   1.88995759   0.20456285
1066.00   1.88621988   0.20513567
1067.00   1.88247880   0.20570955
1068.00   1.87873436   0.20628449
1069.00   1.87498655   0.20686049
1070.00   1.87123539   0.20743755
1071.00   1.86748086   0.20801567
1072.00   1.86372296   0.20859485
1073.00   1.85996171   0.20917509
1074.00   1.85619710   0.20975640
1075.00   1.85242912   0.21033878
1076.00   1.84865779   0.21092221
1077.00   1.84488310   0.21150672
1078.00   1.84110504   0.21209229
1079.00   1.83732363   0.21267893
1080.00   1.83353886   0.21326664
1081.00   1.82975073   0.21385542
1082.00   1.82595924   0.21444527
1083.00   1.82216440   0.21503620
1084.00   1.81836620   0.21562820
1085.00   1.81456464   0.21622127
1086.00   1.81075972   0.21681541
1087.00   1.80695145   0.21741063
1088.00   1.80313983   0.21800693
1089.00   1.79932485   0.21860431
1090.00   1.79550651   0.21920276
1091.00   1.79168482   0.21980229
1092.00   1.78785978   0.22040291
1093.00   1.78403139   0.22100460
1094.00   1.78019964   0.22160738
1095.00   1.77636454   0.22221124
1096.00   1.77252608   0.22281618
1097.00   1.76868428   0.22342221
1098.00   1.76483912   0.22402933
1099.00   1.76099061   0.22463753
1100.00   1.75713875   0.22524682
1101.00   1.75328355   0.22585720
1102.00   1.74942499   0.22646867
1103.00   1.74556308   0.22708123
1104.00   1.74169783   0.22769487
1105.00   1.73782922   0.22830962
1106.00   1.73395727   0.22892545
1107.00   1.73008197   0.22954238
1108.00   1.72620332   0.23016041
1109.00   1.72232133   0.23077953
1110.00   1.71843599   0.23139974
1111.00   1.71454730   0.23202106
1112.00   1.71065527   0.23264347
1113.00   1.70675989   0.23326699
1114.00   1.70286117   0.23389160
1115.00   1.69895911   0.23451731
1116.00   1.69505370   0.23514413
1117.00   1.69114494   0.23577205
1118.00   1.68723285   0.23640108
1119.00   1.68331741   0.23703121
1120.00   1.67939863   0.23766245
1121.00   1.67547650   0.23829479
1122.00   1.67155104   0.23892824
1123.00   1.66762223   0.23956280
1124.00   1.66369009   0.24019847
1125.00   1.65975460   0.24083525
1126.00   1.65581577   0.24147314
1127.00   1.65187361   0.24211214
1128.00   1.64792810   0.24275226
1129.00   1.64397926   0.24339349
1130.00   1.64002708   0.24403584
1131.00   1.63607156   0.24467930
1132.00   1.63211270   0.24532388
1133.00   1.62815051   0.24596958
1134.00   1.62418498   0.24661640
1135.00   1.62021612   0.24726433
1136.00   1.61624392   0.24791339
1137.00   1.61226838   0.24856357
1138.00   1.60828951   0.24921487
1139.00   1.60430730   0.24986729
1140.00   1.60032177   0.25052084
1141.00   1.59633289   0.25117551
1142.00   1.59234069   0.25183131
1143.00   1.58834515   0.25248824
1144.00   1.58434628   0.25314629
1145.00   1.58034408   0.25380548
1146.00   1.57633854   0.25446579
1147.00   1.57232968   0.25512723
1148.00   1.56831749   0.25578981
1149.00   1.56430196   0.25645352
1150.00   1.56028311   0.25711836
1151.00   1.55626092   0.25778433
1152.00   1.55223541   0.25845144
1153.00   1.54820657   0.25911969
1154.00   1.54417440   0.25978907
1155.00   1.54013890   0.26045959
1156.00   1.53610008   0.26113125
1157.00   1.53205793   0.26180405
1158.00   1.52801245   0.26247799
1159.00   1.52396365   0.26315308
1160.00   1.51991152   0.26382930
1161.00   1.51585607   0.26450667
1162.00   1.51179729   0.26518518
1163.00   1.50773519   0.26586484
1164.00   1.50366977   0.26654564
1165.00   1.49960102   0.26722759
1166.00   1.49552895   0.26791069
1167.00   1.49145355   0.26859493
1168.00   1.48737484   0.26928033
1169.00   1.48329280   0.26996688
1170.00   1.47920744   0.27065457
1171.00   1.47511876   0.27134342
1172.00   1.47102677   0.27203343
1173.00   1.46693145   0.27272459
1174.00   1.46283281   0.27341690
1175.00   1.45873085   0.27411037
1176.00   1.45462558   0.27480499
1177.00   1.45051698   0.27550078
1178.00   1.44640507   0.27619772
1179.00   1.44228984   0.27689582
1180.00   1.43817130   0.27759508
1181.00   1.43404943   0.27829551
1182.00   1.42992426   0.27899709
1183.00   1.42579576   0.27969984
1184.00   1.42166396   0.28040376
1185.00   1.41752883   0.28110884
1186.00   1.41339040   0.28181508
1187.00   1.40924864   0.28252249
1188.00   1.40510358   0.28323107
1189.00   1.40095520   0.28394082
1190.00   1.39680351   0.28465174
1191.00   1.39264851   0.28536382
1192.00   1.38849020   0.28607708
1193.00   1.38432858   0.28679151
1194.00   1.38016364   0.28750712
1195.00   1.37599540   0.28822389
1196.00   1.37182384   0.28894185
1197.00   1.36764898   0.28966098
1198.00   1.36347081   0.29038128
1199.00   1.35928932   0.29110276
1200.00   1.35510454   0.29182543
1201.00   1.35091644   0.29254927
1202.00   1.34672503   0.29327429
1203.00   1.34253032   0.29400049
1204.00   1.33833231   0.29472787
1205.00   1.33413098   0.29545644
1206.00   1.32992636   0.29618619
1207.00   1.32571842   0.29691713
1208.00   1.32150719   0.29764925
1209.00   1.31729264   0.29838256
1210.00   1.31307480   0.29911705
1211.00   1.30885365   0.29985274
1212.00   1.30462920   0.30058961
1213.00   1.30040145   0.30132768
1214.00   1.29617039   0.30206693
1215.00   1.29193603   0.30280738
1216.00   1.28769838   0.30354902
1217.00   1.28345742   0.30429185
1218.00   1.27921316   0.30503588
1219.00   1.27496560   0.30578110
1220.00   1.27071475   0.30652752
1221.00   1.26646059   0.30727514
1222.00   1.26220314   0.30802395
1223.00   1.25794238   0.30877397
1224.00   1.25367834   0.30952518
1225.00   1.24941099   0.31027759
1226.00   1.24514035   0.31103121
1227.00   1.24086641   0.31178603
1228.00   1.23658917   0.31254205
1229.00   1.23230865   0.31329928
1230.00   1.22802482   0.31405771
1231.00   1.22373770   0.31481735
1232.00   1.21944729   0.31557820
1233.00   1.21515359   0.31634025
1234.00   1.21085659   0.31710352
1235.00   1.20655630   0.31786799
1236.00   1.20225272   0.31863367
1237.00   1.19794584   0.31940057
1238.00   1.19363568   0.32016867
1239.00   1.18932222   0.32093800
1240.00   1.18500548   0.32170853
1241.00   1.18068544   0.32248028
1242.00   1.17636212   0.32325325
1243.00   1.17203551   0.32402743
1244.00   1.16770560   0.32480283
1245.00   1.16337241   0.32557945
1246.00   1.15903594   0.32635729
1247.00   1.15469617   0.32713635
1248.00   1.15035312   0.32791663
1249.00   1.14600679   0.32869813
1250.00   1.14165717   0.32948086
1251.00   1.13730426   0.33026481
1252.00   1.13294807   0.33104999
1253.00   1.12858859   0.33183639
1254.00   1.12422583   0.33262401
1255.00   1.11985979   0.33341287
1256.00   1.11549046   0.33420295
1257.00   1.11111785   0.33499427
1258.00   1.10674196   0.33578681
1259.00   1.10236279   0.33658058
1260.00   1.09798034   0.33737559
1261.00   1.09359461   0.33817183
1262.00   1.08920559   0.33896930
1263.00   1.08481330   0.33976801
1264.00   1.08041773   0.34056795
1265.00   1.07601888   0.34136913
1266.00   1.07161675   0.34217155
1267.00   1.06721134   0.34297520
1268.00   1.06280266   0.34378010
1269.00   1.05839069   0.34458623
1270.00   1.05397546   0.34539361
1271.00   1.04955694   0.34620222
1272.00   1.04513515   0.34701208
1273.00   1.04071009   0.34782319
1274.00   1.03628175   0.34863553
1275.00   1.03185014   0.34944913
1276.00   1.02741525   0.35026396
1277.00   1.02297709   0.35108005
1278.00   1.01853566   0.35189738
1279.00   1.01409096   0.35271596
1280.00   1.00964298   0.35353580
1281.00   1.00519173   0.35435688
1282.00   1.00073722   0.35517921
1283.00   0.99627943   0.35600280
1284.00   0.99181837   0.35682764
1285.00   0.98735404   0.35765373
1286.00   0.98288645   0.35848108
1287.00   0.97841558   0.35930968
1288.00   0.97394145   0.36013954
1289.00   0.96946405   0.36097066
1290.00   0.96498338   0.36180304
1291.00   0.96049944   0.36263667
1292.00   0.95601224   0.36347157
1293.00   0.95152178   0.36430773
1294.00   0.94702805   0.36514515
1295.00   0.94253105   0.36598383
1296.00   0.93803079   0.36682377
1297.00   0.93352726   0.36766498
1298.00   0.92902048   0.36850746
1299.00   0.92451043   0.36935120
1300.00   0.91999711   0.37019621
1301.00   0.91548054   0.37104249
1302.00   0.91096070   0.37189004
1303.00   0.90643761   0.37273885
1304.00   0.90191125   0.37358894
1305.00   0.89738163   0.37444030
1306.00   0.89284875   0.37529293
1307.00   0.88831262   0.37614683
1308.00   0.88377322   0.37700201
1309.00   0.87923057   0.37785847
1310.00   0.87468466   0.37871620
1311.00   0.87013549   0.37957520
1312.00   0.86558307   0.38043549
1313.00   0.86102739   0.38129705
1314.00   0.85646845   0.38215989
1315.00   0.85190626   0.38302402
1316.00   0.84734081   0.38388942
1317.00   0.84277211   0.38475611
1318.00   0.83820016   0.38562408
1319.00   0.83362495   0.38649333
1320.00   0.82904649   0.38736387
1321.00   0.82446477   0.38823569
1322.00   0.81987981   0.38910880
1323.00   0.81529159   0.38998320
1324.00   0.81070012   0.39085888
1325.00   0.80610541   0.39173586
1326.00   0.80150744   0.39261412
1327.00   0.79690622   0.39349368
1328.00   0.79230175   0.39437452
1329.00   0.78769404   0.39525666
1330.00   0.78308308   0.39614010
1331.00   0.77846887   0.39702482
1332.00   0.77385141   0.39791084
1333.00   0.76923070   0.39879816
1334.00   0.76460675   0.39968678
1335.00   0.75997956   0.40057669
1336.00   0.75534911   0.40146790
1337.00   0.75071543   0.40236041
1338.00   0.74607850   0.40325423
1339.00   0.74143832   0.40414934
1340.00   0.73679491   0.40504575
1341.00   0.73214825   0.40594347
1342.00   0.72749834   0.40684249
1343.00   0.72284520   0.40774282
1344.00   0.71818881   0.40864445
1345.00   0.71352919   0.40954739
1346.00   0.70886632   0.41045164
1347.00   0.70420021   0.41135719
1348.00   0.69953087   0.41226405
1349.00   0.69485828   0.41317223
1350.00   0.69018246   0.41408171
1351.00   0.68550340   0.41499251
1352.00   0.68082110   0.41590461
1353.00   0.67613557   0.41681803
1354.00   0.67144679   0.41773277
1355.00   0.66675479   0.41864882
1356.00   0.66205954   0.41956619
1357.00   0.65736107   0.42048487
1358.00   0.65265935   0.42140487
1359.00   0.64795441   0.42232619
1360.00   0.64324623   0.42324883
1361.00   0.63853481   0.42417279
1362.00   0.63382017   0.42509807
1363.00   0.62910229   0.42602467
1364.00   0.62438118   0.42695260
1365.00   0.61965684   0.42788185
1366.00   0.61492927   0.42881242
1367.00   0.61019847   0.42974432
1368.00   0.60546444   0.43067755
1369.00   0.60072718   0.43161210
1370.00   0.59598669   0.43254798
1371.00   0.59124297   0.43348519
1372.00   0.58649603   0.43442373
1373.00   0.58174586   0.43536360
1374.00   0.57699246   0.43630480
1375.00   0.57223584   0.43724734
1376.00   0.56747599   0.43819120
1377.00   0.56271291   0.43913640
1378.00   0.55794661   0.44008294
1379.00   0.55317709   0.44103081
1380.00   0.54840434   0.44198002
1381.00   0.54362837   0.44293057
1382.00   0.53884918   0.44388245
1383.00   0.53406677   0.44483568
1384.00   0.52928113   0.44579024
1385.00   0.52449227   0.44674615
1386.00   0.51970019   0.44770339
1387.00   0.51490490   0.44866198
1388.00   0.51010638   0.44962191
1389.00   0.50530464   0.45058319
1390.00   0.50049969   0.45154581
1391.00   0.49569151   0.45250978
1392.00   0.49088012   0.45347510
1393.00   0.48606551   0.45444176
1394.00   0.48124769   0.45540977
1395.00   0.47642664   0.45637913
1396.00   0.47160239   0.45734984
1397.00   0.46677492   0.45832191
1398.00   0.46194423   0.45929532
1399.00   0.45711033   0.46027009
1400.00   0.45227321   0.46124621
1401.00   0.44743288   0.46222369
1402.00   0.44258934   0.46320252
1403.00   0.43774259   0.46418271
1404.00   0.43289263   0.46516425
1405.00   0.42803945   0.46614716
1406.00   0.42318306   0.46713142
1407.00   0.41832347   0.46811704
1408.00   0.41346066   0.46910402
1409.00   0.40859465   0.47009237
1410.00   0.40372542   0.47108207
1411.00   0.39885299   0.47207314
1412.00   0.39397735   0.47306558
1413.00   0.38909851   0.47405938
1414.00   0.38421645   0.47505454
1415.00   0.37933119   0.47605107
1416.00   0.37444273   0.47704897
1417.00   0.36955106   0.47804823
1418.00   0.36465619   0.47904887
1419.00   0.35975811   0.48005088
1420.00   0.35485683   0.48105425
1421.00   0.34995234   0.48205900
1422.00   0.34504465   0.48306512
1423.00   0.34013376   0.48407261
1424.00   0.33521967   0.48508148
1425.00   0.33030238   0.48609172
1426.00   0.32538189   0.48710334
1427.00   0.32045820   0.48811634
1428.00   0.31553130   0.48913071
1429.00   0.31060121   0.49014646
1430.00   0.30566792   0.49116360
1431.00   0.30073144   0.49218211
1432.00   0.29579175   0.49320200
1433.00   0.29084887   0.49422327
1434.00   0.28590279   0.49524593
1435.00   0.28095352   0.49626997
1436.00   0.27600105   0.49729539
1437.00   0.27104539   0.49832220
1438.00   0.26608653   0.49935040
1439.00   0.26112448   0.50037998
1440.00   0.25615923   0.50141095
1441.00   0.25119079   0.50244331
1442.00   0.24621916   0.50347706
1443.00   0.24124434   0.50451220
1444.00   0.23626633   0.50554873
1445.00   0.23128512   0.50658665
1446.00   0.22630073   0.50762597
1447.00   0.22131314   0.50866667
1448.00   0.21632237   0.50970878
1449.00   0.21132841   0.51075228
1450.00   0.20633126   0.51179717
1451.00   0.20133092   0.51284346
1452.00   0.19632739   0.51389115
1453.00   0.19132068   0.51494024
1454.00   0.18631078   0.51599073
1455.00   0.18129770   0.51704262
1456.00   0.17628143   0.51809590
1457.00   0.17126198   0.51915060
1458.00   0.16623934   0.52020669
1459.00   0.16121352   0.52126419
1460.00   0.15618452   0.52232309
1461.00   0.15115233   0.52338340
1462.00   0.14611696   0.52444511
1463.00   0.14107841   0.52550824
1464.00   0.13603668   0.52657276
1465.00   0.13099177   0.52763870
1466.00   0.12594368   0.52870605
1467.00   0.12089241   0.52977481
1468.00   0.11583796   0.53084498
1469.00   0.11078034   0.53191656
1470.00   0.10571953   0.53298956
1471.00   0.10065555   0.53406396
1472.00   0.09558839   0.53513979
1473.00   0.09051805   0.53621703
1474.00   0.08544454   0.53729568
1475.00   0.08036786   0.53837575
1476.00   0.07528800   0.53945724
1477.00   0.07020496   0.54054015
1478.00   0.06511876   0.54162448
1479.00   0.06002937   0.54271023
1480.00   0.05493682   0.54379740
1481.00   0.04984109   0.54488600
1482.00   0.04474220   0.54597601
1483.00   0.03964013   0.54706745
1484.00   0.03453489   0.54816032
1485.00   0.02942648   0.54925461
1486.00   0.02431490   0.55035032
1487.00   0.01920016   0.55144747
1488.00   0.01408224   0.55254604
1489.00   0.00896116   0.55364604
1490.00   0.00383691   0.55474747
1491.00  -0.00129051   0.55585033
1492.00  -0.00642109   0.55695462
1493.00  -0.01155484   0.55806035
1494.00  -0.01669175   0.55916750
1495.00  -0.02183183   0.56027610
1496.00  -0.02697507   0.56138612
1497.00  -0.03212148   0.56249758
1498.00  -0.03727105   0.56361048
1499.00  -0.04242378   0.56472482
1500.00  -0.04757967   0.56584059
1501.00  -0.05273873   0.56695780
1502.00  -0.05790094   0.56807645
1503.00  -0.06306632   0.56919654
1504.00  -0.06823486   0.57031808
1505.00  -0.07340655   0.57144105
1506.00  -0.07858141   0.57256547
1507.00  -0.08375942   0.57369133
1508.00  -0.08894059   0.57481864
1509.00  -0.09412491   0.57594739
1510.00  -0.09931240   0.57707759
1511.00  -0.10450304   0.57820924
1512.00  -0.10969683   0.57934233
1513.00  -0.11489378   0.58047687
1514.00  -0.12009389   0.58161287
1515.00  -0.12529715   0.58275031
1516.00  -0.13050356   0.58388920
1517.00  -0.13571313   0.58502955
1518.00  -0.14092584   0.58617135
1519.00  -0.14614171   0.58731460
1520.00  -0.15136073   0.58845931
1521.00  -0.15658291   0.58960547
1522.00  -0.16180823   0.59075309
1523.00  -0.16703670   0.59190217
1524.00  -0.17226832   0.59305270
1525.00  -0.17750309   0.59420469
1526.00  -0.18274101   0.59535814
1527.00  -0.18798207   0.59651306
1528.00  -0.19322628   0.59766943
1529.00  -0.19847364   0.59882726
1530.00  -0.20372415   0.59998656
1531.00  -0.20897779   0.60114732
1532.00  -0.21423459   0.60230955
1533.00  -0.21949453   0.60347324
1534.00  -0.22475761   0.60463840
1535.00  -0.23002384   0.60580503
1536.00  -0.23529320   0.60697312
1537.00  -0.24056571   0.60814268
1538.00  -0.24584137   0.60931371
1539.00  -0.25112016   0.61048621
1540.00  -0.25640209   0.61166018
1541.00  -0.26168716   0.61283563
1542.00  -0.26697538   0.61401254
1543.00  -0.27226673   0.61519093
1544.00  -0.27756122   0.61637079
1545.00  -0.28285885   0.61755213
1546.00  -0.28815961   0.61873495
1547.00  -0.29346351   0.61991924
1548.00  -0.29877055   0.62110501
1549.00  -0.30408072   0.62229226
1550.00  -0.30939403   0.62348099
1551.00  -0.31471047   0.62467119
1552.00  -0.32003005   0.62586288
1553.00  -0.32535276   0.62705605
1554.00  -0.33067860   0.62825070
1555.00  -0.33600758   0.62944684
1556.00  -0.34133969   0.63064446
1557.00  -0.34667493   0.63184356
1558.00  -0.35201330   0.63304415
1559.00  -0.35735479   0.63424623
1560.00  -0.36269942   0.63544979
1561.00  -0.36804718   0.63665485
1562.00  -0.37339807   0.63786139
1563.00  -0.37875208   0.63906942
1564.00  -0.38410922   0.64027894
1565.00  -0.38946949   0.64148995
1566.00  -0.39483289   0.64270246
1567.00  -0.40019941   0.64391646
1568.00  -0.40556905   0.64513195
1569.00  -0.41094182   0.64634894
1570.00  -0.41631772   0.64756742
1571.00  -0.42169674   0.64878740
1572.00  -0.42707888   0.65000888
1573.00  -0.43246414   0.65123185
1574.00  -0.43785253   0.65245632
1575.00  -0.44324403   0.65368230
1576.00  -0.44863866   0.65490977
1577.00  -0.45403641   0.65613874
1578.00  -0.45943728   0.65736922
1579.00  -0.46484126   0.65860120
1580.00  -0.47024837   0.65983468
1581.00  -0.47565859   0.66106967
1582.00  -0.48107193   0.66230616
1583.00  -0.48648839   0.66354416
1584.00  -0.49190796   0.66478367
1585.00  -0.49733065   0.66602468
1586.00  -0.50275646   0.66726720
1587.00  -0.50818538   0.66851123
1588.00  -0.51361741   0.66975678
1589.00  -0.51905256   0.67100383
1590.00  -0.52449082   0.67225239
1591.00  -0.52993219   0.67350247
1592.00  -0.53537668   0.67475406
1593.00  -0.54082427   0.67600716
1594.00  -0.54627498   0.67726178
1595.00  -0.55172880   0.67851792
1596.00  -0.55718572   0.67977557
1597.00  -0.56264576   0.68103474
1598.00  -0.56810890   0.68229542
1599.00  -0.57357516   0.68355763
1600.00  -0.57904452   0.68482136
1601.00  -0.58451698   0.68608660
1602.00  -0.58999256   0.68735337
1603.00  -0.59547123   0.68862166
1604.00  -0.60095302   0.68989147
1605.00  -0.60643791   0.69116281
1606.00  -0.61192590   0.69243567
1607.00  -0.61741700   0.69371006
1608.00  -0.62291120   0.69498597
1609.00  -0.62840850   0.69626341
1610.00  -0.63390890   0.69754238
1611.00  -0.63941241   0.69882288
1612.00  -0.64491901   0.70010490
1613.00  -0.65042872   0.70138846
1614.00  -0.65594152   0.70267355
1615.00  -0.66145743   0.70396017
1616.00  -0.66697643   0.70524832
1617.00  -0.67249853   0.70653801
1618.00  -0.67802373   0.70782923
1619.00  -0.68355203   0.70912198
1620.00  -0.68908342   0.71041627
1621.00  -0.69461791   0.71171210
1622.00  -0.70015549   0.71300946
1623.00  -0.70569616   0.71430837
1624.00  -0.71123993   0.71560881
1625.00  -0.71678680   0.71691079
1626.00  -0.72233676   0.71821432
1627.00  -0.72788980   0.71951938
1628.00  -0.73344595   0.72082599
1629.00  -0.73900518   0.72213414
1630.00  -0.74456750   0.72344383
1631.00  -0.75013291   0.72475507
1632.00  -0.75570141   0.72606785
1633.00  -0.76127301   0.72738218
1634.00  -0.76684768   0.72869806
1635.00  -0.77242545   0.73001548
1636.00  -0.77800631   0.73133446
1637.00  -0.78359025   0.73265498
1638.00  -0.78917727   0.73397705
1639.00  -0.79476738   0.73530068
1640.00  -0.80036058   0.73662585
1641.00  -0.80595686   0.73795258
1642.00  -0.81155623   0.73928086
1643.00  -0.81715868   0.74061070
1644.00  -0.82276421   0.74194209
1645.00  -0.82837282   0.74327504
1646.00  -0.83398451   0.74460954
1647.00  -0.83959929   0.74594560
1648.00  -0.84521715   0.74728322
1649.00  -0.85083808   0.74862240
1650.00  -0.85646209   0.74996314
1651.00  -0.86208919   0.75130544
1652.00  -0.86771936   0.75264930
1653.00  -0.87335261   0.75399472
1654.00  -0.87898893   0.75534170
1655.00  -0.88462834   0.75669025
1656.00  -0.89027081   0.75804037
1657.00  -0.89591637   0.75939204
1658.00  -0.90156499   0.76074529
1659.00  -0.90721669   0.76210010
1660.00  -0.91287147   0.76345648
1661.00  -0.91852932   0.76481443
1662.00  -0.92419024   0.76617394
1663.00  -0.92985423   0.76753503
1664.00  -0.93552129   0.76889769
1665.00  -0.94119142   0.77026192
1666.00  -0.94686463   0.77162772
1667.00  -0.95254090   0.77299510
1668.00  -0.95822024   0.77436404
1669.00  -0.96390265   0.77573457
1670.00  -0.96958813   0.77710667
1671.00  -0.97527667   0.77848034
1672.00  -0.98096829   0.77985560
1673.00  -0.98666296   0.78123243
1674.00  -0.99236071   0.78261084
1675.00  -0.99806151   0.78399082
1676.00  -1.00376538   0.78537239
1677.00  -1.00947232   0.78675554
1678.00  -1.01518232   0.78814028
1679.00  -1.02089538   0.78952659
1680.00  -1.02661150   0.79091449
1681.00  -1.03233069   0.79230397
1682.00  -1.03805293   0.79369504
1683.00  -1.04377824   0.79508769
1684.00  -1.04950660   0.79648193
1685.00  -1.05523802   0.79787776
1686.00  -1.06097251   0.79927517
1687.00  -1.06671005   0.80067418
1688.00  -1.07245064   0.80207477
1689.00  -1.07819430   0.80347696
1690.00  -1.08394101   0.80488073
1691.00  -1.08969077   0.80628610
1692.00  -1.09544359   0.80769306
1693.00  -1.10119947   0.80910162
1694.00  -1.10695839   0.81051176
1695.00  -1.11272038   0.81192351
1696.00  -1.11848541   0.81333685
1697.00  -1.12425350   0.81475178
1698.00  -1.13002463   0.81616832
1699.00  -1.13579882   0.81758645
1700.00  -1.14157606   0.81900618
1701.00  -1.14735635   0.82042751
1702.00  -1.15313969   0.82185044
1703.00  -1.15892607   0.82327498
1704.00  -1.16471551   0.82470111
1705.00  -1.17050799   0.82612885
1706.00  -1.17630352   0.82755819
1707.00  -1.18210209   0.82898914
1708.00  -1.18790371   0.83042169
1709.00  -1.19370837   0.83185585
1710.00  -1.19951608   0.83329161
1711.00  -1.20532684   0.83472898
1712.00  -1.21114063   0.83616796
1713.00  -1.21695747   0.83760855
1714.00  -1.22277735   0.83905075
1715.00  -1.22860027   0.84049456
1716.00  -1.23442624   0.84193999
1717.00  -1.24025524   0.84338702
1718.00  -1.24608728   0.84483567
1719.00  -1.25192236   0.84628593
1720.00  -1.25776048   0.84773781
1721.00  -1.26360164   0.84919130
1722.00  -1.26944584   0.85064640
1723.00  -1.27529307   0.85210313
1724.00  -1.28114334   0.85356147
1725.00  -1.28699664   0.85502143
1726.00  -1.29285298   0.85648301
1727.00  -1.29871236   0.85794621
1728.00  -1.30457476   0.85941103
1729.00  -1.31044020   0.86087747
1730.00  -1.31630868   0.86234554
1731.00  -1.32218018   0.86381522
1732.00  -1.32805472   0.86528654
1733.00  -1.33393229   0.86675947
1734.00  -1.33981288   0.86823403
1735.00  -1.34569651   0.86971022
1736.00  -1.35158317   0.87118804
1737.00  -1.35747285   0.87266748
1738.00  -1.36336556   0.87414855
1739.00  -1.36926130   0.87563125
1740.00  -1.37516007   0.87711558
1741.00  -1.38106186   0.87860154
1742.00  -1.38696668   0.88008913
1743.00  -1.39287452   0.88157836
1744.00  -1.39878539   0.88306921
1745.00  -1.40469928   0.88456171
1746.00  -1.41061619   0.88605583
1747.00  -1.41653613   0.88755159
1748.00  -1.42245909   0.88904899
1749.00  -1.42838507   0.89054803
1750.00  -1.43431407   0.89204870
1751.00  -1.44024609   0.89355101
1752.00  -1.44618113   0.89505496
1753.00  -1.45211919   0.89656055
1754.00  -1.45806026   0.89806778
1755.00  -1.46400436   0.89957666
1756.00  -1.46995147   0.90108717
1757.00  -1.47590160   0.90259933
1758.00  -1.48185474   0.90411313
1759.00  -1.48781090   0.90562858
1760.00  -1.49377008   0.90714567
1761.00  -1.49973226   0.90866441
1762.00  -1.50569747   0.91018479
1763.00  -1.51166568   0.91170682
1764.00  -1.51763691   0.91323050
1765.00  -1.52361115   0.91475583
1766.00  -1.52958840   0.91628281
1767.00  -1.53556866   0.91781144
1768.00  -1.54155193   0.91934173
1769.00  -1.54753821   0.92087366
1770.00  -1.55352749   0.92240725
1771.00  -1.55951979   0.92394249
1772.00  -1.56551509   0.92547939
1773.00  -1.57151340   0.92701794
1774.00  -1.57751472   0.92855814
1775.00  -1.58351904   0.93010001
1776.00  -1.58952637   0.93164353
1777.00  -1.59553670   0.93318871
1778.00  -1.60155004   0.93473554
1779.00  -1.60756638   0.93628404
1780.00  -1.61358572   0.93783420
1781.00  -1.61960806   0.93938602
1782.00  -1.62563341   0.94093950
1783.00  -1.63166175   0.94249465
1784.00  -1.63769310   0.94405146
1785.00  -1.64372745   0.94560993
1786.00  -1.64976479   0.94717007
1787.00  -1.65580514   0.94873187
1788.00  -1.66184848   0.95029534
1789.00  -1.66789482   0.95186048
1790.00  -1.67394415   0.95342729
1791.00  -1.67999648   0.95499576
1792.00  -1.68605181   0.95656591
1793.00  -1.69211013   0.95813772
1794.00  -1.69817144   0.95971121
1795.00  -1.70423575   0.96128637
1796.00  -1.71030305   0.96286320
1797.00  -1.71637335   0.96444170
1798.00  -1.72244663   0.96602188
1799.00  -1.72852291   0.96760373
1800.00  -1.73460218   0.96918726
1801.00  -1.74068444   0.97077247
1802.00  -1.74676968   0.97235935
1803.00  -1.75285792   0.97394791
1804.00  -1.75894914   0.97553815
1805.00  -1.76504335   0.97713007
1806.00  -1.77114055   0.97872367
1807.00  -1.77724073   0.98031895
1808.00  -1.78334390   0.98191591
1809.00  -1.78945006   0.98351455
1810.00  -1.79555920   0.98511488
1811.00  -1.80167132   0.98671689
1812.00  -1.80778643   0.98832059
1813.00  -1.81390452   0.98992597
1814.00  -1.82002559   0.99153303
1815.00  -1.82614964   0.99314179
1816.00  -1.83227667   0.99475223
1817.00  -1.83840668   0.99636436
1818.00  -1.84453967   0.99797818
1819.00  -1.85067565   0.99959369
1820.00  -1.85681460   1.00121089
1821.00  -1.86295652   1.00282978
1822.00  -1.86910143   1.00445036
1823.00  -1.87524931   1.00607264
1824.00  -1.88140016   1.00769661
1825.00  -1.88755399   1.00932228
1826.00  -1.89371080   1.01094964
1827.00  -1.89987058   1.01257869
1828.00  -1.90603333   1.01420944
1829.00  -1.91219906   1.01584189
1830.00  -1.91836776   1.01747604
1831.00  -1.92453943   1.01911189
1832.00  -1.93071407   1.02074943
1833.00  -1.93689168   1.02238868
1834.00  -1.94307226   1.02402963
1835.00  -1.94925581   1.02567228
1836.00  -1.95544233   1.02731663
1837.00  -1.96163181   1.02896269
1838.00  -1.96782426   1.03061044
1839.00  -1.97401968   1.03225991
1840.00  -1.98021807   1.03391108
1841.00  -1.98641942   1.03556395
1842.00  -1.99262373   1.03721854
1843.00  -1.99883101   1.03887483
1844.00  -2.00504126   1.04053283
1845.00  -2.01125446   1.04219254
1846.00  -2.01747063   1.04385396
1847.00  -2.02368976   1.04551709
1848.00  -2.02991185   1.04718193
1849.00  -2.03613690   1.04884848
1850.00  -2.04236491   1.05051675
1851.00  -2.04859588   1.05218673
1852.00  -2.05482981   1.05385842
1853.00  -2.06106669   1.05553183
1854.00  -2.06730654   1.05720695
1855.00  -2.07354933   1.05888380
1856.00  -2.07979509   1.06056236
1857.00  -2.08604380   1.06224263
1858.00  -2.09229547   1.06392463
1859.00  -2.09855009   1.06560835
1860.00  -2.10480766   1.06729378
1861.00  -2.11106819   1.06898094
1862.00  -2.11733167   1.07066982
1863.00  -2.12359810   1.07236042
1864.00  -2.12986748   1.07405274
1865.00  -2.13613981   1.07574679
1866.00  -2.14241509   1.07744257
1867.00  -2.14869332   1.07914007
1868.00  -2.15497450   1.08083929
1869.00  -2.16125862   1.08254024
1870.00  -2.16754570   1.08424292
1871.00  -2.17383572   1.08594733
1872.00  -2.18012869   1.08765347
1873.00  -2.18642460   1.08936134
1874.00  -2.19272345   1.09107093
1875.00  -2.19902526   1.09278226
1876.00  -2.20533000   1.09449532
1877.00  -2.21163769   1.09621012
1878.00  -2.21794832   1.09792665
1879.00  -2.22426189   1.09964491
1880.00  -2.23057840   1.10136491
1881.00  -2.23689785   1.10308664
1882.00  -2.24322024   1.10481011
1883.00  -2.24954557   1.10653531
1884.00  -2.25587384   1.10826226
1885.00  -2.26220505   1.10999094
1886.00  -2.26853920   1.11172136
1887.00  -2.27487628   1.11345352
1888.00  -2.28121629   1.11518743
1889.00  -2.28755925   1.11692307
1890.00  -2.29390513   1.11866046
1891.00  -2.30025395   1.12039959
1892.00  -2.30660571   1.12214046
1893.00  -2.31296040   1.12388308
1894.00  -2.31931801   1.12562744
1895.00  -2.32567857   1.12737355
1896.00  -2.33204205   1.12912141
1897.00  -2.33840846   1.13087101
1898.00  -2.34477780   1.13262236
1899.00  -2.35115007   1.13437546
1900.00  -2.35752527   1.13613031
1901.00  -2.36390340   1.13788691
1902.00  -2.37028445   1.13964526
1903.00  -2.37666843   1.14140536
1904.00  -2.38305534   1.14316722
1905.00  -2.38944517   1.14493083
1906.00  -2.39583793   1.14669619
1907.00  -2.40223360   1.14846331
1908.00  -2.40863221   1.15023218
1909.00  -2.41503373   1.15200281
1910.00  -2.42143818   1.15377519
1911.00  -2.42784555   1.15554933
1912.00  -2.43425584   1.15732523
1913.00  -2.44066905   1.15910289
1914.00  -2.44708518   1.16088231
1915.00  -2.45350423   1.16266349
1916.00  -2.45992619   1.16444643
1917.00  -2.46635108   1.16623113
1918.00  -2.47277888   1.16801760
1919.00  -2.47920960   1.16980583
1920.00  -2.48564323   1.17159582
1921.00  -2.49207978   1.17338758
1922.00  -2.49851924   1.17518110
1923.00  -2.50496162   1.17697639
1924.00  -2.51140690   1.17877344
1925.00  -2.51785511   1.18057226
1926.00  -2.52430622   1.18237285
1927.00  -2.53076024   1.18417521
1928.00  -2.53721718   1.18597934
1929.00  -2.54367702   1.18778524
1930.00  -2.55013978   1.18959292
1931.00  -2.55660544   1.19140236
1932.00  -2.56307401   1.19321357
1933.00  -2.56954549   1.19502656
1934.00  -2.57601988   1.19684133
1935.00  -2.58249717   1.19865786
1936.00  -2.58897736   1.20047618
1937.00  -2.59546046   1.20229627
1938.00  -2.60194647   1.20411813
1939.00  -2.60843538   1.20594178
1940.00  -2.61492719   1.20776720
1941.00  -2.62142190   1.20959440
1942.00  -2.62791952   1.21142338
1943.00  -2.63442004   1.21325414
1944.00  -2.64092345   1.21508668
1945.00  -2.64742977   1.21692101
1946.00  -2.65393898   1.21875711
1947.00  -2.66045110   1.22059500
1948.00  -2.66696611   1.22243468
1949.00  -2.67348402   1.22427614
1950.00  -2.68000482   1.22611938
1951.00  -2.68652852   1.22796441
1952.00  -2.69305512   1.22981123
1953.00  -2.69958461   1.23165983
1954.00  -2.70611699   1.23351023
1955.00  -2.71265227   1.23536241
1956.00  -2.71919044   1.23721638
1957.00  -2.72573150   1.23907214
1958.00  -2.73227546   1.24092969
1959.00  -2.73882230   1.24278904
1960.00  -2.74537203   1.24465018
1961.00  -2.75192466   1.24651311
1962.00  -2.75848017   1.24837783
1963.00  -2.76503857   1.25024435
1964.00  -2.77159985   1.25211266
1965.00  -2.77816403   1.25398277
1966.00  -2.78473109   1.25585468
1967.00  -2.79130103   1.25772839
1968.00  -2.79787386   1.25960389
1969.00  -2.80444958   1.26148119
1970.00  -2.81102818   1.26336029
1971.00  -2.81760966   1.26524119
1972.00  -2.82419402   1.26712389
1973.00  -2.83078126   1.26900840
1974.00  -2.83737139   1.27089470
1975.00  -2.84396439   1.27278281
1976.00  -2.85056028   1.27467273
1977.00  -2.85715904   1.27656444
1978.00  -2.86376069   1.27845797
1979.00  -2.87036521   1.28035330
1980.00  -2.87697260   1.28225043
1981.00  -2.88358288   1.28414937
1982.00  -2.89019603   1.28605013
1983.00  -2.89681205   1.28795268
1984.00  -2.90343095   1.28985705
1985.00  -2.91005272   1.29176323
1986.00  -2.91667737   1.29367122
1987.00  -2.92330488   1.29558102
1988.00  -2.92993527   1.29749264
1989.00  -2.93656853   1.29940606
1990.00  -2.94320467   1.30132130
1991.00  -2.94984367   1.30323836
1992.00  -2.95648554   1.30515723
1993.00  -2.96313028   1.30707791
1994.00  -2.96977788   1.30900041
1995.00  -2.97642836   1.31092473
1996.00  -2.98308170   1.31285087
1997.00  -2.98973790   1.31477882
1998.00  -2.99639697   1.31670859
1999.00  -3.00305891   1.31864019
2000.00  -3.00972371   1.32057360
