wavelength(nm)         real         imag
200.00   3.73213250   0.00320825
201.00   3.73045025   0.00325661
202.00   3.72875962   0.00330544
203.00   3.72706061   0.00335476
204.00   3.72535323   0.00340457
205.00   3.72363746   0.00345487
206.00   3.72191333   0.00350567
207.00   3.72018081   0.00355695
208.00   3.71843992   0.00360874
209.00   3.71669065   0.00366103
210.00   3.71493300   0.00371381
211.00   3.71316698   0.00376711
212.00   3.71139259   0.00382091
213.00   3.70960981   0.00387522
214.00   3.70781866   0.00393004
215.00   3.70601914   0.00398538
216.00   3.70421124   0.00404123
217.00   3.70239497   0.00409760
218.00   3.70057032   0.00415449
219.00   3.69873729   0.00421191
220.00   3.69689589   0.00426986
221.00   3.69504612   0.00432833
222.00   3.69318798   0.00438733
223.00   3.69132146   0.00444687
224.00   3.68944656   0.00450695
225.00   3.68756330   0.00456756
226.00   3.68567165   0.00462871
227.00   3.68377164   0.00469041
228.00   3.68186326   0.00475265
229.00   3.67994650   0.00481544
230.00   3.67802137   0.00487878
231.00   3.67608786   0.00494267
232.00   3.67414599   0.00500712
233.00   3.67219574   0.00507212
234.00   3.67023712   0.00513769
235.00   3.66827013   0.00520381
236.00   3.66629477   0.00527051
237.00   3.66431104   0.00533777
238.00   3.66231894   0.00540559
239.00   3.66031847   0.00547400
240.00   3.65830962   0.00554297
241.00   3.65629241   0.00561252
242.00   3.65426683   0.00568265
243.00   3.65223288   0.00575336
244.00   3.65019056   0.00582466
245.00   3.64813987   0.00589654
246.00   3.64608081   0.00596901
247.00   3.64401338   0.00604208
248.00   3.64193758   0.00611573
249.00   3.63985342   0.00618998
250.00   3.63776089   0.00626483
251.00   3.63565999   0.00634028
252.00   3.63355072   0.00641633
253.00   3.63143308   0.00649299
254.00   3.62930708   0.00657026
255.00   3.62717271   0.00664814
256.00   3.62502998   0.00672663
257.00   3.62287888   0.00680573
258.00   3.62071941   0.00688545
259.00   3.61855158   0.00696579
260.00   3.61637538   0.00704676
261.00   3.61419081   0.00712834
262.00   3.61199788   0.00721056
263.00   3.60979659   0.00729340
264.00   3.60758693   0.00737688
265.00   3.60536890   0.00746099
266.00   3.60314252   0.00754574
267.00   3.60090776   0.00763112
268.00   3.59866465   0.00771715
269.00   3.59641317   0.00780382
270.00   3.59415333   0.00789113
271.00   3.59188512   0.00797910
272.00   3.58960855   0.00806772
273.00   3.58732362   0.00815698
274.00   3.58503033   0.00824691
275.00   3.58272868   0.00833749
276.00   3.58041866   0.00842874
277.00   3.57810028   0.00852064
278.00   3.57577354   0.00861321
279.00   3.57343844   0.00870645
280.00   3.57109498   0.00880036
281.00   3.56874316   0.00889494
282.00   3.56638298   0.00899020
283.00   3.56401444   0.00908613
284.00   3.56163754   0.00918274
285.00   3.55925228   0.00928004
286.00   3.55685866   0.00937802
287.00   3.55445668   0.00947668
288.00   3.55204634   0.00957604
289.00   3.54962765   0.00967608
290.00   3.54720060   0.00977682
291.00   3.54476518   0.00987826
292.00   3.54232142   0.00998039
293.00   3.53986929   0.01008323
294.00   3.53740881   0.01018677
295.00   3.53493997   0.01029102
296.00   3.53246277   0.01039597
297.00   3.52997722   0.01050163
298.00   3.52748331   0.01060801
299.00   3.52498105   0.01071510
300.00   3.52247043   0.01082291
301.00   3.51995145   0.01093144
302.00   3.51742412   0.01104070
303.00   3.51488844   0.01115067
304.00   3.51234440   0.01126138
305.00   3.50979201   0.01137281
306.00   3.50723126   0.01148498
307.00   3.50466216   0.01159788
308.00   3.50208471   0.01171152
309.00   3.49949890   0.01182590
310.00   3.49690475   0.01194102
311.00   3.49430224   0.01205688
312.00   3.49169137   0.01217349
313.00   3.48907216   0.01229085
314.00   3.48644459   0.01240896
315.00   3.48380868   0.01252782
316.00   3.48116441   0.01264744
317.00   3.47851179   0.01276782
318.00   3.47585082   0.01288895
319.00   3.47318150   0.01301086
320.00   3.47050383   0.01313352
321.00   3.46781782   0.01325696
322.00   3.46512345   0.01338116
323.00   3.46242073   0.01350614
324.00   3.45970967   0.01363189
325.00   3.45699025   0.01375842
326.00   3.45426249   0.01388573
327.00   3.45152639   0.01401382
328.00   3.44878193   0.01414270
329.00   3.44602913   0.01427236
330.00   3.44326798   0.01440281
331.00   3.44049848   0.01453406
332.00   3.43772064   0.01466610
333.00   3.43493445   0.01479893
334.00   3.43213992   0.01493256
335.00   3.42933704   0.01506700
336.00   3.42652581   0.01520224
337.00   3.42370625   0.01533828
338.00   3.42087833   0.01547513
339.00   3.41804208   0.01561280
340.00   3.41519747   0.01575128
341.00   3.41234453   0.01589057
342.00   3.40948324   0.01603068
343.00   3.40661361   0.01617161
344.00   3.40373564   0.01631336
345.00   3.40084933   0.01645594
346.00   3.39795467   0.01659935
347.00   3.39505167   0.01674358
348.00   3.39214033   0.01688865
349.00   3.38922065   0.01703455
350.00   3.38629263   0.01718129
351.00   3.38335627   0.01732887
352.00   3.38041157   0.01747729
353.00   3.37745853   0.01762655
354.00   3.37449715   0.01777666
355.00   3.37152743   0.01792762
356.00   3.36854938   0.01807943
357.00   3.36556298   0.01823210
358.00   3.36256825   0.01838562
359.00   3.35956518   0.01854000
360.00   3.35655377   0.01869524
361.00   3.35353402   0.01885134
362.00   3.35050594   0.01900831
363.00   3.34746952   0.01916615
364.00   3.34442477   0.01932485
365.00   3.34137168   0.01948443
366.00   3.33831025   0.01964489
367.00   3.33524049   0.01980622
368.00   3.33216240   0.01996843
369.00   3.32907597   0.02013152
370.00   3.32598120   0.02029550
371.00   3.32287811   0.02046037
372.00   3.31976668   0.02062612
373.00   3.31664691   0.02079277
374.00   3.31351882   0.02096031
375.00   3.31038239   0.02112874
376.00   3.30723763   0.02129808
377.00   3.30408454   0.02146831
378.00   3.30092311   0.02163945
379.00   3.29775336   0.02181150
380.00   3.29457527   0.02198445
381.00   3.29138886   0.02215832
382.00   3.28819411   0.02233310
383.00   3.28499104   0.02250879
384.00   3.28177964   0.02268540
385.00   3.27855990   0.02286293
386.00   3.27533184   0.02304139
387.00   3.27209545   0.02322077
388.00   3.26885074   0.02340107
389.00   3.26559769   0.02358231
390.00   3.26233632   0.02376447
391.00   3.25906662   0.02394758
392.00   3.25578860   0.02413162
393.00   3.25250225   0.02431659
394.00   3.24920757   0.02450251
395.00   3.24590457   0.02468938
396.00   3.24259325   0.02487719
397.00   3.23927360   0.02506595
398.00   3.23594562   0.02525566
399.00   3.23260932   0.02544632
400.00   3.22926470   0.02563794
401.00   3.22591176   0.02583051
402.00   3.22255049   0.02602405
403.00   3.21918090   0.02621855
404.00   3.21580298   0.02641402
405.00   3.21241675   0.02661045
406.00   3.20902220   0.02680785
407.00   3.20561932   0.02700623
408.00   3.20220812   0.02720558
409.00   3.19878861   0.02740591
410.00   3.19536077   0.02760722
411.00   3.19192461   0.02780950
412.00   3.18848014   0.02801278
413.00   3.18502734   0.02821704
414.00   3.18156623   0.02842229
415.00   3.17809680   0.02862853
416.00   3.17461906   0.02883576
417.00   3.17113299   0.02904399
418.00   3.16763861   0.02925322
419.00   3.16413591   0.02946345
420.00   3.16062490   0.02967468
421.00   3.15710557   0.02988692
422.00   3.15357792   0.03010016
423.00   3.15004196   0.03031442
424.00   3.14649769   0.03052969
425.00   3.14294510   0.03074597
426.00   3.13938420   0.03096327
427.00   3.13581499   0.03118159
428.00   3.13223746   0.03140094
429.00   3.12865162   0.03162131
430.00   3.12505747   0.03184270
431.00   3.12145500   0.03206512
432.00   3.11784423   0.03228858
433.00   3.11422514   0.03251307
434.00   3.11059774   0.03273859
435.00   3.10696203   0.03296516
436.00   3.10331802   0.03319276
437.00   3.09966569   0.03342141
438.00   3.09600506   0.03365111
439.00   3.09233611   0.03388185
440.00   3.08865886   0.03411364
441.00   3.08497330   0.03434649
442.00   3.08127943   0.03458039
443.00   3.07757726   0.03481535
444.00   3.07386678   0.03505137
445.00   3.07014799   0.03528845
446.00   3.06642090   0.03552660
447.00   3.06268550   0.03576581
448.00   3.05894180   0.03600609
449.00   3.05518979   0.03624745
450.00   3.05142948   0.03648988
451.00   3.04766086   0.03673338
452.00   3.04388394   0.03697797
453.00   3.04009872   0.03722363
454.00   3.03630520   0.03747038
455.00   3.03250337   0.03771821
456.00   3.02869325   0.03796714
457.00   3.02487482   0.03821715
458.00   3.02104809   0.03846826
459.00   3.01721306   0.03872046
460.00   3.01336973   0.03897376
461.00   3.00951810   0.03922816
462.00   3.00565817   0.03948366
463.00   3.00178994   0.03974027
464.00   2.99791341   0.03999799
465.00   2.99402859   0.04025681
466.00   2.99013547   0.04051675
467.00   2.98623405   0.04077780
468.00   2.98232434   0.04103997
469.00   2.97840632   0.04130325
470.00   2.97448002   0.04156766
471.00   2.97054542   0.04183319
472.00   2.96660252   0.04209985
473.00   2.96265133   0.04236764
474.00   2.95869184   0.04263655
475.00   2.95472406   0.04290660
476.00   2.95074799   0.04317779
477.00   2.94676363   0.04345011
478.00   2.94277097   0.04372358
479.00   2.93877002   0.04399818
480.00   2.93476078   0.04427394
481.00   2.93074325   0.04455083
482.00   2.92671742   0.04482888
483.00   2.92268331   0.04510808
484.00   2.91864091   0.04538844
485.00   2.91459022   0.04566995
486.00   2.91053124   0.04595262
487.00   2.90646397   0.04623645
488.00   2.90238841   0.04652145
489.00   2.89830457   0.04680761
490.00   2.89421244   0.04709494
491.00   2.89011202   0.04738344
492.00   2.88600332   0.04767312
493.00   2.88188633   0.04796397
494.00   2.87776105   0.04825600
495.00   2.87362749   0.04854921
496.00   2.86948565   0.04884360
497.00   2.86533552   0.04913918
498.00   2.86117711   0.04943594
499.00   2.85701042   0.04973389
500.00   2.85283544   0.05003304
501.00   2.84865218   0.05033338
502.00   2.84446064   0.05063491
503.00   2.84026082   0.05093765
504.00   2.83605272   0.05124159
505.00   2.83183633   0.05154673
506.00   2.82761167   0.05185308
507.00   2.82337873   0.05216063
508.00   2.81913751   0.05246940
509.00   2.81488801   0.05277938
510.00   2.81063023   0.05309057
511.00   2.80636418   0.05340299
512.00   2.80208985   0.05371662
513.00   2.79780724   0.05403148
514.00   2.79351636   0.05434756
515.00   2.78921720   0.05466487
516.00   2.78490976   0.05498341
517.00   2.78059405   0.05530318
518.00   2.77627007   0.05562418
519.00   2.77193781   0.05594642
520.00   2.76759728   0.05626990
521.00   2.76324847   0.05659463
522.00   2.75889140   0.05692059
523.00   2.75452605   0.05724780
524.00   2.75015243   0.05757627
525.00   2.74577054   0.05790598
526.00   2.74138038   0.05823694
527.00   2.73698195   0.05856916
528.00   2.73257525   0.05890264
529.00   2.72816028   0.05923738
530.00   2.72373704   0.05957338
531.00   2.71930554   0.05991064
532.00   2.71486576   0.06024918
533.00   2.71041772   0.06058898
534.00   2.70596142   0.06093005
535.00   2.70149684   0.06127240
536.00   2.69702401   0.06161603
537.00   2.69254290   0.06196093
538.00   2.68805353   0.06230712
539.00   2.68355590   0.06265458
540.00   2.67905000   0.06300334
541.00   2.67453585   0.06335338
542.00   2.67001342   0.06370472
543.00   2.66548274   0.06405734
544.00   2.66094379   0.06441127
545.00   2.65639659   0.06476649
546.00   2.65184112   0.06512301
547.00   2.64727739   0.06548083
548.00   2.64270540   0.06583996
549.00   2.63812515   0.06620039
550.00   2.63353665   0.06656214
551.00   2.62893988   0.06692519
552.00   2.62433486   0.06728956
553.00   2.61972158   0.06765525
554.00   2.61510005   0.06802225
555.00   2.61047026   0.06839058
556.00   2.60583221   0.06876023
557.00   2.60118590   0.06913120
558.00   2.59653135   0.06950351
559.00   2.59186854   0.06987714
560.00   2.58719747   0.07025211
561.00   2.58251815   0.07062841
562.00   2.57783058   0.07100605
563.00   2.57313476   0.07138503
564.00   2.56843068   0.07176535
565.00   2.56371835   0.07214702
566.00   2.55899778   0.07253003
567.00   2.55426895   0.07291439
568.00   2.54953187   0.07330011
569.00   2.54478655   0.07368717
570.00   2.54003297   0.07407560
571.00   2.53527115   0.07446538
572.00   2.53050108   0.07485652
573.00   2.52572276   0.07524903
574.00   2.52093620   0.07564290
575.00   2.51614139   0.07603814
576.00   2.51133833   0.07643475
577.00   2.50652703   0.07683274
578.00   2.50170749   0.07723209
579.00   2.49687970   0.07763283
580.00   2.49204367   0.07803494
581.00   2.48719939   0.07843844
582.00   2.48234687   0.07884332
583.00   2.47748611   0.07924959
584.00   2.47261711   0.07965724
585.00   2.46773987   0.08006629
586.00   2.46285439   0.08047673
587.00   2.45796067   0.08088857
588.00   2.45305871   0.08130180
589.00   2.44814851   0.08171644
590.00   2.44323007   0.08213248
591.00   2.43830340   0.08254992
592.00   2.43336849   0.08296877
593.00   2.42842534   0.08338903
594.00   2.42347396   0.08381070
595.00   2.41851434   0.08423379
596.00   2.41354648   0.08465830
597.00   2.40857039   0.08508422
598.00   2.40358607   0.08551157
599.00   2.39859351   0.08594034
600.00   2.39359273   0.08637053
601.00   2.38858371   0.08680215
602.00   2.38356645   0.08723521
603.00   2.37854097   0.08766970
604.00   2.37350726   0.08810562
605.00   2.36846531   0.08854298
606.00   2.36341514   0.08898178
607.00   2.35835674   0.08942203
608.00   2.35329010   0.08986372
609.00   2.34821525   0.09030685
610.00   2.34313216   0.09075144
611.00   2.33804085   0.09119748
612.00   2.33294131   0.09164497
613.00   2.32783355   0.09209391
614.00   2.32271756   0.09254432
615.00   2.31759334   0.09299619
616.00   2.31246090   0.09344952
617.00   2.30732024   0.09390432
618.00   2.30217136   0.09436058
619.00   2.29701425   0.09481832
620.00   2.29184893   0.09527753
621.00   2.28667538   0.09573821
622.00   2.28149361   0.09620037
623.00   2.27630362   0.09666401
624.00   2.27110541   0.09712913
625.00   2.26589898   0.09759574
626.00   2.26068433   0.09806383
627.00   2.25546147   0.09853341
628.00   2.25023039   0.09900449
629.00   2.24499109   0.09947705
630.00   2.23974358   0.09995112
631.00   2.23448785   0.10042668
632.00   2.22922390   0.10090374
633.00   2.22395174   0.10138231
634.00   2.21867137   0.10186238
635.00   2.21338279   0.10234395
636.00   2.20808599   0.10282704
637.00   2.20278098   0.10331164
638.00   2.19746775   0.10379775
639.00   2.19214632   0.10428539
640.00   2.18681668   0.10477454
641.00   2.18147883   0.10526521
642.00   2.17613276   0.10575740
643.00   2.17077849   0.10625112
644.00   2.16541601   0.10674637
645.00   2.16004533   0.10724316
646.00   2.15466643   0.10774147
647.00   2.14927934   0.10824132
648.00   2.14388403   0.10874270
649.00   2.13848052   0.10924563
650.00   2.13306881   0.10975010
651.00   2.12764889   0.11025611
652.00   2.12222077   0.11076368
653.00   2.11678444   0.11127279
654.00   2.11133991   0.11178345
655.00   2.10588719   0.11229566
656.00   2.10042626   0.11280943
657.00   2.09495713   0.11332476
658.00   2.08947980   0.11384166
659.00   2.08399427   0.11436011
660.00   2.07850054   0.11488013
661.00   2.07299861   0.11540172
662.00   2.06748849   0.11592487
663.00   2.06197017   0.11644960
664.00   2.05644366   0.11697591
665.00   2.05090894   0.11750379
666.00   2.04536604   0.11803325
667.00   2.03981494   0.11856429
668.00   2.03425564   0.11909692
669.00   2.02868815   0.11963113
670.00   2.02311247   0.12016694
671.00   2.01752860   0.12070433
672.00   2.01193653   0.12124331
673.00   2.00633628   0.12178389
674.00   2.00072783   0.12232607
675.00   1.99511120   0.12286985
676.00   1.98948637   0.12341523
677.00   1.98385336   0.12396222
678.00   1.97821216   0.12451081
679.00   1.97256277   0.12506102
680.00   1.96690520   0.12561283
681.00   1.96123944   0.12616626
682.00   1.95556550   0.12672130
683.00   1.94988337   0.12727797
684.00   1.94419305   0.12783625
685.00   1.93849455   0.12839616
686.00   1.93278787   0.12895769
687.00   1.92707301   0.12952085
688.00   1.92134997   0.13008564
689.00   1.91561874   0.13065206
690.00   1.90987934   0.13122012
691.00   1.90413175   0.13178982
692.00   1.89837599   0.13236115
693.00   1.89261204   0.13293413
694.00   1.88683992   0.13350875
695.00   1.88105962   0.13408501
696.00   1.87527115   0.13466293
697.00   1.86947450   0.13524249
698.00   1.86366967   0.13582371
699.00   1.85785667   0.13640658
700.00   1.85203549   0.13699111
701.00   1.84620614   0.13757731
702.00   1.84036862   0.13816516
703.00   1.83452293   0.13875468
704.00   1.82866906   0.13934586
705.00   1.82280703   0.13993872
706.00   1.81693682   0.14053325
707.00   1.81105844   0.14112945
708.00   1.80517190   0.14172732
709.00   1.79927718   0.14232688
710.00   1.79337430   0.14292811
711.00   1.78746325   0.14353103
712.00   1.78154403   0.14413564
713.00   1.77561665   0.14474193
714.00   1.76968111   0.14534991
715.00   1.76373739   0.14595958
716.00   1.75778552   0.14657095
717.00   1.75182548   0.14718402
718.00   1.74585728   0.14779878
719.00   1.73988091   0.14841525
720.00   1.73389639   0.14903342
721.00   1.72790370   0.14965329
722.00   1.72190286   0.15027488
723.00   1.71589385   0.15089817
724.00   1.70987669   0.15152318
725.00   1.70385136   0.15214990
726.00   1.69781788   0.15277834
727.00   1.69177625   0.15340850
728.00   1.68572645   0.15404038
729.00   1.67966851   0.15467399
730.00   1.67360240   0.15530932
731.00   1.66752814   0.15594638
732.00   1.66144573   0.15658517
733.00   1.65535517   0.15722570
734.00   1.64925645   0.15786796
735.00   1.64314958   0.15851196
736.00   1.63703456   0.15915771
737.00   1.63091139   0.15980519
738.00   1.62478008   0.16045442
739.00   1.61864061   0.16110539
740.00   1.61249299   0.16175812
741.00   1.60633723   0.16241260
742.00   1.60017332   0.16306883
743.00   1.59400126   0.16372681
744.00   1.58782106   0.16438656
745.00   1.58163271   0.16504807
746.00   1.57543622   0.16571134
747.00   1.56923158   0.16637638
748.00   1.56301880   0.16704318
749.00   1.55679788   0.16771175
750.00   1.55056882   0.16838210
751.00   1.54433161   0.16905422
752.00   1.53808627   0.16972812
753.00   1.53183279   0.17040380
754.00   1.52557116   0.17108126
755.00   1.51930140   0.17176050
756.00   1.51302350   0.17244153
757.00   1.50673747   0.17312435
758.00   1.50044330   0.17380896
759.00   1.49414099   0.17449536
760.00   1.48783055   0.17518356
761.00   1.48151197   0.17587355
762.00   1.47518526   0.17656535
763.00   1.46885042   0.17725894
764.00   1.46250744   0.17795434
765.00   1.45615634   0.17865155
766.00   1.44979710   0.17935057
767.00   1.44342973   0.18005139
768.00   1.43705424   0.18075404
769.00   1.43067061   0.18145849
770.00   1.42427886   0.18216477
771.00   1.41787898   0.18287286
772.00   1.41147097   0.18358278
773.00   1.40505484   0.18429452
774.00   1.39863058   0.18500809
775.00   1.39219820   0.18572349
776.00   1.38575769   0.18644073
777.00   1.37930906   0.18715979
778.00   1.37285231   0.18788069
779.00   1.36638743   0.18860343
780.00   1.35991444   0.18932802
781.00   1.35343332   0.19005444
782.00   1.34694409   0.19078271
783.00   1.34044673   0.19151283
784.00   1.33394126   0.19224480
785.00   1.32742767   0.19297861
786.00   1.32090596   0.19371429
787.00   1.31437614   0.19445182
788.00   1.30783820   0.19519121
789.00   1.30129214   0.19593246
790.00   1.29473798   0.19667558
791.00   1.28817569   0.19742056
792.00   1.28160530   0.19816741
793.00   1.27502679   0.19891613
794.00   1.26844018   0.19966672
795.00   1.26184545   0.20041919
796.00   1.25524261   0.20117353
797.00   1.24863167   0.20192976
798.00   1.24201261   0.20268786
799.00   1.23538545   0.20344785
800.00   1.22875018   0.20420973
801.00   1.22210680   0.20497349
802.00   1.21545532   0.20573915
803.00   1.20879573   0.20650670
804.00   1.20212804   0.20727614
805.00   1.19545225   0.20804748
806.00   1.18876835   0.20882073
807.00   1.18207635   0.20959587
808.00   1.17537625   0.21037292
809.00   1.16866805   0.21115187
810.00   1.16195175   0.21193274
811.00   1.15522735   0.21271551
812.00   1.14849485   0.21350020
813.00   1.14175426   0.21428681
814.00   1.13500557   0.21507533
815.00   1.12824878   0.21586577
816.00   1.12148389   0.21665814
817.00   1.11471092   0.21745243
818.00   1.10792984   0.21824865
819.00   1.10114068   0.21904680
820.00   1.09434342   0.21984688
821.00   1.08753807   0.22064889
822.00   1.08072463   0.22145284
823.00   1.07390310   0.22225872
824.00   1.06707347   0.22306655
825.00   1.06023576   0.22387632
826.00   1.05338997   0.22468804
827.00   1.04653608   0.22550170
828.00   1.03967411   0.22631732
829.00   1.03280405   0.22713488
830.00   1.02592591   0.22795440
831.00   1.01903968   0.22877588
832.00   1.01214537   0.22959932
833.00   1.00524297   0.23042471
834.00   0.99833249   0.23125207
835.00   0.99141394   0.23208140
836.00   0.98448730   0.23291269
837.00   0.97755258   0.23374595
838.00   0.97060978   0.23458119
839.00   0.96365890   0.23541840
840.00   0.95669995   0.23625758
841.00   0.94973292   0.23709875
842.00   0.94275781   0.23794190
843.00   0.93577462   0.23878703
844.00   0.92878337   0.23963414
845.00   0.92178403   0.24048325
846.00   0.91477663   0.24133434
847.00   0.90776115   0.24218743
848.00   0.90073760   0.24304251
849.00   0.89370598   0.24389959
850.00   0.88666629   0.24475867
851.00   0.87961853   0.24561975
852.00   0.87256270   0.24648284
853.00   0.86549880   0.24734793
854.00   0.85842684   0.24821503
855.00   0.85134681   0.24908414
856.00   0.84425871   0.24995526
857.00   0.83716255   0.25082840
858.00   0.83005833   0.25170355
859.00   0.82294604   0.25258073
860.00   0.81582569   0.25345992
861.00   0.80869727   0.25434115
862.00   0.80156080   0.25522439
863.00   0.79441626   0.25610967
864.00   0.78726367   0.25699697
865.00   0.78010301   0.25788631
866.00   0.77293430   0.25877769
867.00   0.76575754   0.25967110
868.00   0.75857271   0.26056656
869.00   0.75137983   0.26146405
870.00   0.74417889   0.26236359
871.00   0.73696990   0.26326517
872.00   0.72975286   0.26416881
873.00   0.72252776   0.26507449
874.00   0.71529462   0.26598223
875.00   0.70805342   0.26689203
876.00   0.70080417   0.26780388
877.00   0.69354687   0.26871779
878.00   0.68628152   0.26963377
879.00   0.67900813   0.27055181
880.00   0.67172668   0.27147191
881.00   0.66443720   0.27239409
882.00   0.65713966   0.27331833
883.00   0.64983408   0.27424465
884.00   0.64252046   0.27517305
885.00   0.63519879   0.27610352
886.00   0.62786908   0.27703608
887.00   0.62053133   0.27797071
888.00   0.61318554   0.27890743
889.00   0.60583171   0.27984624
890.00   0.59846984   0.28078714
891.00   0.59109993   0.28173013
892.00   0.58372198   0.28267521
893.00   0.57633599   0.28362239
894.00   0.56894197   0.28457166
895.00   0.56153992   0.28552304
896.00   0.55412983   0.28647652
897.00   0.54671170   0.28743210
898.00   0.53928554   0.28838979
899.00   0.53185135   0.28934959
900.00   0.52440913   0.29031150
901.00   0.51695888   0.29127553
902.00   0.50950060   0.29224167
903.00   0.50203429   0.29320993
904.00   0.49455995   0.29418031
905.00   0.48707758   0.29515281
906.00   0.47958719   0.29612744
907.00   0.47208877   0.29710420
908.00   0.46458233   0.29808308
909.00   0.45706786   0.29906410
910.00   0.44954537   0.30004725
911.00   0.44201486   0.30103253
912.00   0.43447632   0.30201996
913.00   0.42692976   0.30300952
914.00   0.41937519   0.30400123
915.00   0.41181259   0.30499508
916.00   0.40424198   0.30599108
917.00   0.39666334   0.30698923
918.00   0.38907669   0.30798953
919.00   0.38148203   0.30899199
920.00   0.37387935   0.30999660
921.00   0.36626865   0.31100337
922.00   0.35864994   0.31201230
923.00   0.35102322   0.31302339
924.00   0.34338849   0.31403665
925.00   0.33574574   0.31505207
926.00   0.32809499   0.31606967
927.00   0.32043622   0.31708944
928.00   0.31276945   0.31811138
929.00   0.30509467   0.31913549
930.00   0.29741188   0.32016179
931.00   0.28972108   0.32119026
932.00   0.28202228   0.32222092
933.00   0.27431548   0.32325376
934.00   0.26660067   0.32428879
935.00   0.25887786   0.32532601
936.00   0.25114704   0.32636543
937.00   0.24340823   0.32740703
938.00   0.23566141   0.32845083
939.00   0.22790660   0.32949683
940.00   0.22014378   0.33054503
941.00   0.21237297   0.33159544
942.00   0.20459416   0.33264805
943.00   0.19680735   0.33370286
944.00   0.18901255   0.33475989
945.00   0.18120975   0.33581912
946.00   0.17339896   0.33688058
947.00   0.16558018   0.33794424
948.00   0.15775340   0.33901013
949.00   0.14991864   0.34007823
950.00   0.14207588   0.34114856
951.00   0.13422513   0.34222112
952.00   0.12636640   0.34329590
953.00   0.11849967   0.34437291
954.00   0.11062496   0.34545215
955.00   0.10274226   0.34653362
956.00   0.09485158   0.34761734
957.00   0.08695291   0.34870329
958.00   0.07904626   0.34979148
959.00   0.07113163   0.35088191
960.00   0.06320901   0.35197459
961.00   0.05527841   0.35306951
962.00   0.04733984   0.35416669
963.00   0.03939328   0.35526611
964.00   0.03143874   0.35636779
965.00   0.02347623   0.35747173
966.00   0.01550574   0.35857792
967.00   0.00752727   0.35968637
968.00  -0.00045917   0.36079709
969.00  -0.00845359   0.36191007
970.00  -0.01645598   0.36302532
971.00  -0.02446635   0.36414284
972.00  -0.03248468   0.36526263
973.00  -0.04051099   0.36638469
974.00  -0.04854526   0.36750903
975.00  -0.05658751   0.36863564
976.00  -0.06463772   0.36976454
977.00  -0.07269591   0.37089572
978.00  -0.08076205   0.37202918
979.00  -0.08883617   0.37316493
980.00  -0.09691825   0.37430297
981.00  -0.10500829   0.37544330
982.00  -0.11310630   0.37658593
983.00  -0.12121227   0.37773085
984.00  -0.12932620   0.37887806
985.00  -0.13744809   0.38002758
986.00  -0.14557794   0.38117940
987.00  -0.15371575   0.38233352
988.00  -0.16186152   0.38348995
989.00  -0.17001525   0.38464869
990.00  -0.17817693   0.38580974
991.00  -0.18634657   0.38697311
992.00  -0.19452416   0.38813879
993.00  -0.20270971   0.38930678
994.00  -0.21090321   0.39047710
995.00  -0.21910466   0.39164974
996.00  -0.22731406   0.39282470
997.00  -0.23553141   0.39400199
998.00  -0.24375671   0.39518161
999.00  -0.25198996   0.39636356
1000.00  -0.26023116   0.39754784
1001.00  -0.26848031   0.39873446
1002.00  -0.27673740   0.39992341
1003.00  -0.28500243   0.40111470
1004.00  -0.29327541   0.40230834
1005.00  -0.30155633   0.40350432
1006.00  -0.30984520   0.40470264
1007.00  -0.31814200   0.40590332
1008.00  -0.32644675   0.40710634
1009.00  -0.33475944   0.40831172
1010.00  -0.34308006   0.40951945
1011.00  -0.35140863   0.41072954
1012.00  -0.35974513   0.41194199
1013.00  -0.36808956   0.41315680
1014.00  -0.37644193   0.41437397
1015.00  -0.38480224   0.41559351
1016.00  -0.39317048   0.41681542
1017.00  -0.40154665   0.41803970
1018.00  -0.40993076   0.41926635
1019.00  -0.41832279   0.42049537
1020.00  -0.42672275   0.42172677
1021.00  -0.43513065   0.42296055
1022.00  -0.44354647   0.42419672
1023.00  -0.45197022   0.42543526
1024.00  -0.46040189   0.42667619
1025.00  -0.46884149   0.42791951
1026.00  -0.47728902   0.42916522
1027.00  -0.48574447   0.43041332
1028.00  -0.49420784   0.43166381
1029.00  -0.50267913   0.43291670
1030.00  -0.51115834   0.43417199
1031.00  -0.51964548   0.43542968
1032.00  -0.52814053   0.43668978
1033.00  -0.53664350   0.43795228
1034.00  -0.54515439   0.43921718
1035.00  -0.55367320   0.44048450
1036.00  -0.56219992   0.44175423
1037.00  -0.57073455   0.44302637
1038.00  -0.57927710   0.44430092
1039.00  -0.58782756   0.44557790
1040.00  -0.59638593   0.44685730
1041.00  -0.60495222   0.44813912
1042.00  -0.61352641   0.44942336
1043.00  -0.62210851   0.45071003
1044.00  -0.63069853   0.45199913
1045.00  -0.63929644   0.45329066
1046.00  -0.64790227   0.45458462
1047.00  -0.65651600   0.45588102
1048.00  -0.66513764   0.45717986
1049.00  -0.67376717   0.45848114
1050.00  -0.68240462   0.45978486
1051.00  -0.69104996   0.46109102
1052.00  -0.69970320   0.46239964
1053.00  -0.70836435   0.46371070
1054.00  -0.71703339   0.46502421
1055.00  -0.72571033   0.46634017
1056.00  -0.73439517   0.46765859
1057.00  -0.74308790   0.46897947
1058.00  -0.75178853   0.47030280
1059.00  -0.76049706   0.47162860
1060.00  -0.76921347   0.47295686
1061.00  -0.77793778   0.47428759
1062.00  -0.78666999   0.47562078
1063.00  -0.79541008   0.47695645
1064.00  -0.80415806   0.47829459
1065.00  -0.81291393   0.47963520
1066.00  -0.82167769   0.48097829
1067.00  -0.83044934   0.48232386
1068.00  -0.83922887   0.48367191
1069.00  -0.84801629   0.48502245
1070.00  -0.85681159   0.48637547
1071.00  -0.86561477   0.48773098
1072.00  -0.87442584   0.48908897
1073.00  -0.88324479   0.49044946
1074.00  -0.89207162   0.49181245
1075.00  -0.90090633   0.49317793
1076.00  -0.90974891   0.49454591
1077.00  -0.91859938   0.49591638
1078.00  -0.92745772   0.49728937
1079.00  -0.93632394   0.49866485
1080.00  -0.94519803   0.50004285
1081.00  -0.95407999   0.50142335
1082.00  -0.96296983   0.50280637
1083.00  -0.97186754   0.50419190
1084.00  -0.98077312   0.50557994
1085.00  -0.98968657   0.50697051
1086.00  -0.99860790   0.50836359
1087.00  -1.00753708   0.50975919
1088.00  -1.01647414   0.51115732
1089.00  -1.02541906   0.51255798
1090.00  -1.03437185   0.51396117
1091.00  -1.04333250   0.51536688
1092.00  -1.05230102   0.51677513
1093.00  -1.06127740   0.51818592
1094.00  -1.07026164   0.51959924
1095.00  -1.07925374   0.52101510
1096.00  -1.08825370   0.52243350
1097.00  -1.09726152   0.52385445
1098.00  -1.10627719   0.52527795
1099.00  -1.11530073   0.52670399
1100.00  -1.12433212   0.52813258
1101.00  -1.13337136   0.52956372
1102.00  -1.14241846   0.53099742
1103.00  -1.15147341   0.53243368
1104.00  -1.16053621   0.53387249
1105.00  -1.16960686   0.53531387
1106.00  -1.17868537   0.53675781
1107.00  -1.18777172   0.53820431
1108.00  -1.19686592   0.53965338
1109.00  -1.20596797   0.54110502
1110.00  -1.21507786   0.54255924
1111.00  -1.22419560   0.54401602
1112.00  -1.23332119   0.54547539
1113.00  -1.24245462   0.54693733
1114.00  -1.25159589   0.54840185
1115.00  -1.26074500   0.54986896
1116.00  -1.26990195   0.55133865
1117.00  -1.27906674   0.55281092
1118.00  -1.28823937   0.55428579
1119.00  -1.29741984   0.55576324
1120.00  -1.30660814   0.55724329
1121.00  -1.31580428   0.55872594
1122.00  -1.32500825   0.56021118
1123.00  -1.33422006   0.56169902
1124.00  -1.34343970   0.56318947
1125.00  -1.35266717   0.56468251
1126.00  -1.36190247   0.56617817
1127.00  -1.37114560   0.56767643
1128.00  -1.38039656   0.56917730
1129.00  -1.38965535   0.57068079
1130.00  -1.39892197   0.57218689
1131.00  -1.40819641   0.57369560
1132.00  -1.41747867   0.57520694
1133.00  -1.42676876   0.57672090
1134.00  -1.43606667   0.57823748
1135.00  -1.44537241   0.57975668
1136.00  -1.45468596   0.58127852
1137.00  -1.46400734   0.58280298
1138.00  -1.47333653   0.58433007
1139.00  -1.48267354   0.58585980
1140.00  -1.49201837   0.58739216
1141.00  -1.50137102   0.58892717
1142.00  -1.51073148   0.59046481
1143.00  -1.52009975   0.59200509
1144.00  -1.52947584   0.59354802
1145.00  -1.53885973   0.59509360
1146.00  -1.54825144   0.59664182
1147.00  -1.55765096   0.59819270
1148.00  -1.56705829   0.59974623
1149.00  -1.57647343   0.60130241
1150.00  -1.58589637   0.60286126
1151.00  -1.59532712   0.60442276
1152.00  -1.60476567   0.60598692
1153.00  -1.61421203   0.60755375
1154.00  -1.62366619   0.60912324
1155.00  -1.63312816   0.61069540
1156.00  -1.64259792   0.61227023
1157.00  -1.65207549   0.61384773
1158.00  -1.66156085   0.61542791
1159.00  -1.67105401   0.61701076
1160.00  -1.68055497   0.61859629
1161.00  -1.69006372   0.62018451
1162.00  -1.69958027   0.62177540
1163.00  -1.70910462   0.62336898
1164.00  -1.71863675   0.62496525
1165.00  -1.72817668   0.62656421
1166.00  -1.73772440   0.62816585
1167.00  -1.74727991   0.62977020
1168.00  -1.75684321   0.63137723
1169.00  -1.76641429   0.63298697
1170.00  -1.77599317   0.63459940
1171.00  -1.78557983   0.63621454
1172.00  -1.79517427   0.63783238
1173.00  -1.80477650   0.63945293
1174.00  -1.81438651   0.64107618
1175.00  -1.82400430   0.64270215
1176.00  -1.83362988   0.64433083
1177.00  -1.84326323   0.64596222
1178.00  -1.85290436   0.64759633
1179.00  -1.86255327   0.64923316
1180.00  -1.87220996   0.65087271
1181.00  -1.88187442   0.65251498
1182.00  -1.89154666   0.65415998
1183.00  -1.90122667   0.65580770
1184.00  -1.91091445   0.65745816
1185.00  -1.92061001   0.65911134
1186.00  -1.93031333   0.66076726
1187.00  -1.94002443   0.66242592
1188.00  -1.94974329   0.66408731
1189.00  -1.95946993   0.66575145
1190.00  -1.96920433   0.66741832
1191.00  -1.97894649   0.66908794
1192.00  -1.98869642   0.67076031
1193.00  -1.99845411   0.67243542
1194.00  -2.00821957   0.67411329
1195.00  -2.01799278   0.67579390
1196.00  -2.02777376   0.67747728
1197.00  -2.03756249   0.67916341
1198.00  -2.04735899   0.68085229
1199.00  -2.05716324   0.68254394
1200.00  -2.06697525   0.68423836
1201.00  -2.07679501   0.68593553
1202.00  -2.08662253   0.68763548
1203.00  -2.09645780   0.68933820
1204.00  -2.10630082   0.69104368
1205.00  -2.11615159   0.69275194
1206.00  -2.12601012   0.69446298
1207.00  -2.13587639   0.69617679
1208.00  -2.14575041   0.69789339
1209.00  -2.15563218   0.69961276
1210.00  -2.16552169   0.70133492
1211.00  -2.17541895   0.70305987
1212.00  -2.18532395   0.70478760
1213.00  -2.19523670   0.70651813
1214.00  -2.20515719   0.70825145
1215.00  -2.21508541   0.70998756
1216.00  -2.22502138   0.71172647
1217.00  -2.23496509   0.71346818
1218.00  -2.24491653   0.71521269
1219.00  -2.25487571   0.71696000
1220.00  -2.26484262   0.71871012
1221.00  -2.27481727   0.72046304
1222.00  -2.28479966   0.72221878
1223.00  -2.29478977   0.72397732
1224.00  -2.30478762   0.72573868
1225.00  -2.31479320   0.72750286
1226.00  -2.32480650   0.72926985
1227.00  -2.33482754   0.73103966
1228.00  -2.34485630   0.73281230
1229.00  -2.35489279   0.73458776
1230.00  -2.36493700   0.73636604
1231.00  -2.37498893   0.73814716
1232.00  -2.38504859   0.73993110
1233.00  -2.39511597   0.74171788
1234.00  -2.40519107   0.74350749
1235.00  -2.41527390   0.74529993
1236.00  -2.42536443   0.74709522
1237.00  -2.43546269   0.74889334
1238.00  -2.44556867   0.75069431
1239.00  -2.45568235   0.75249813
1240.00  -2.46580376   0.75430479
1241.00  -2.47593287   0.75611430
1242.00  -2.48606970   0.75792666
1243.00  -2.49621424   0.75974188
1244.00  -2.50636649   0.76155995
1245.00  -2.51652645   0.76338087
1246.00  -2.52669412   0.76520466
1247.00  -2.53686949   0.76703131
1248.00  -2.54705257   0.76886082
1249.00  -2.55724336   0.77069320
1250.00  -2.56744185   0.77252844
1251.00  -2.57764804   0.77436656
1252.00  -2.58786193   0.77620755
1253.00  -2.59808352   0.77805141
1254.00  -2.60831281   0.77989815
1255.00  -2.61854981   0.78174776
1256.00  -2.62879449   0.78360026
1257.00  -2.63904688   0.78545564
1258.00  -2.64930696   0.78731390
1259.00  -2.65957473   0.78917505
1260.00  -2.66985019   0.79103909
1261.00  -2.68013335   0.79290602
1262.00  -2.69042420   0.79477584
1263.00  -2.70072274   0.79664856
1264.00  -2.71102897   0.79852417
1265.00  -2.72134288   0.80040269
1266.00  -2.73166448   0.80228410
1267.00  -2.74199377   0.80416842
1268.00  -2.75233074   0.80605564
1269.00  -2.76267539   0.80794577
1270.00  -2.77302773   0.80983881
1271.00  -2.78338775   0.81173476
1272.00  -2.79375544   0.81363362
1273.00  -2.80413082   0.81553540
1274.00  -2.81451387   0.81744010
1275.00  -2.82490460   0.81934771
1276.00  -2.83530301   0.82125825
1277.00  -2.84570909   0.82317172
1278.00  -2.85612284   0.82508810
1279.00  -2.86654427   0.82700742
1280.00  -2.87697337   0.82892967
1281.00  -2.88741013   0.83085484
1282.00  -2.89785457   0.83278296
1283.00  -2.90830667   0.83471400
1284.00  -2.91876645   0.83664799
1285.00  -2.92923388   0.83858492
1286.00  -2.93970899   0.84052479
1287.00  -2.95019175   0.84246760
1288.00  -2.96068218   0.84441336
1289.00  -2.97118027   0.84636207
1290.00  -2.98168602   0.84831373
1291.00  -2.99219943   0.85026835
1292.00  -3.00272049   0.85222591
1293.00  -3.01324922   0.85418644
1294.00  -3.02378560   0.85614992
1295.00  -3.03432963   0.85811637
1296.00  -3.04488132   0.86008577
1297.00  -3.05544066   0.86205815
1298.00  -3.06600765   0.86403348
1299.00  -3.07658229   0.86601179
1300.00  -3.08716459   0.86799307
1301.00  -3.09775452   0.86997733
1302.00  -3.10835211   0.87196456
1303.00  -3.11895734   0.87395476
1304.00  -3.12957022   0.87594795
1305.00  -3.14019074   0.87794411
1306.00  -3.15081891   0.87994326
1307.00  -3.16145471   0.88194540
1308.00  -3.17209816   0.88395052
1309.00  -3.18274924   0.88595864
1310.00  -3.19340797   0.88796974
1311.00  -3.20407433   0.88998384
1312.00  -3.21474832   0.89200094
1313.00  -3.22542995   0.89402103
1314.00  -3.23611922   0.89604412
1315.00  -3.24681611   0.89807022
1316.00  -3.25752064   0.90009932
1317.00  -3.26823280   0.90213142
1318.00  -3.27895259   0.90416654
1319.00  -3.28968001   0.90620466
1320.00  -3.30041505   0.90824580
1321.00  -3.31115772   0.91028995
1322.00  -3.32190801   0.91233711
1323.00  -3.33266593   0.91438730
1324.00  -3.34343147   0.91644050
1325.00  -3.35420463   0.91849673
1326.00  -3.36498541   0.92055598
1327.00  -3.37577381   0.92261826
1328.00  -3.38656983   0.92468357
1329.00  -3.39737346   0.92675191
1330.00  -3.40818471   0.92882328
1331.00  -3.41900358   0.93089768
1332.00  -3.42983006   0.93297512
1333.00  -3.44066415   0.93505561
1334.00  -3.45150585   0.93713913
1335.00  -3.46235516   0.93922569
1336.00  -3.47321209   0.94131530
1337.00  -3.48407661   0.94340796
1338.00  -3.49494875   0.94550366
1339.00  -3.50582849   0.94760242
1340.00  -3.51671584   0.94970423
1341.00  -3.52761079   0.95180909
1342.00  -3.53851334   0.95391702
1343.00  -3.54942349   0.95602800
1344.00  -3.56034124   0.95814204
1345.00  -3.57126659   0.96025914
1346.00  -3.58219954   0.96237931
1347.00  -3.59314008   0.96450255
1348.00  -3.60408822   0.96662886
1349.00  -3.61504396   0.96875824
1350.00  -3.62600728   0.97089069
1351.00  -3.63697820   0.97302622
1352.00  -3.64795671   0.97516482
1353.00  -3.65894281   0.97730651
1354.00  -3.66993650   0.97945127
1355.00  -3.68093777   0.98159912
1356.00  -3.69194664   0.98375006
1357.00  -3.70296308   0.98590408
1358.00  -3.71398711   0.98806119
1359.00  -3.72501872   0.99022139
1360.00  -3.73605792   0.99238469
1361.00  -3.74710469   0.99455108
1362.00  -3.75815905   0.99672057
1363.00  -3.76922098   0.99889316
1364.00  -3.78029049   1.00106886
1365.00  -3.79136757   1.00324765
1366.00  -3.80245223   1.00542955
1367.00  -3.81354446   1.00761456
1368.00  -3.82464427   1.00980268
1369.00  -3.83575164   1.01199391
1370.00  -3.84686659   1.01418826
1371.00  -3.85798910   1.01638572
1372.00  -3.86911919   1.01858630
1373.00  -3.88025683   1.02079000
1374.00  -3.89140205   1.02299682
1375.00  -3.90255483   1.02520676
1376.00  -3.91371517   1.02741983
1377.00  -3.92488307   1.02963603
1378.00  -3.93605854   1.03185536
1379.00  -3.94724156   1.03407782
1380.00  -3.95843214   1.03630341
1381.00  -3.96963028   1.03853214
1382.00  -3.98083598   1.04076401
1383.00  -3.99204923   1.04299902
1384.00  -4.00327003   1.04523717
1385.00  -4.01449839   1.04747846
1386.00  -4.02573430   1.04972290
1387.00  -4.03697776   1.05197049
1388.00  -4.04822876   1.05422123
1389.00  -4.05948732   1.05647512
1390.00  -4.07075342   1.05873217
1391.00  -4.08202707   1.06099237
1392.00  -4.09330826   1.06325573
1393.00  -4.10459700   1.06552225
1394.00  -4.11589327   1.06779193
1395.00  -4.12719709   1.07006477
1396.00  -4.13850845   1.07234079
1397.00  -4.14982735   1.07461997
1398.00  -4.16115378   1.07690232
1399.00  -4.17248775   1.07918784
1400.00  -4.18382925   1.08147654
1401.00  -4.19517829   1.08376841
1402.00  -4.20653486   1.08606346
1403.00  -4.21789897   1.08836169
1404.00  -4.22927060   1.09066310
1405.00  -4.24064976   1.09296770
1406.00  -4.25203645   1.09527549
1407.00  -4.26343067   1.09758646
1408.00  -4.27483241   1.09990062
1409.00  -4.28624168   1.10221797
1410.00  -4.29765847   1.10453852
1411.00  -4.30908278   1.10686227
1412.00  -4.32051461   1.10918921
1413.00  -4.33195396   1.11151935
1414.00  -4.34340083   1.11385270
1415.00  -4.35485522   1.11618925
1416.00  -4.36631713   1.11852900
1417.00  -4.37778655   1.12087197
1418.00  -4.38926348   1.12321814
1419.00  -4.40074792   1.12556753
1420.00  -4.41223988   1.12792013
1421.00  -4.42373935   1.13027594
1422.00  -4.43524632   1.13263498
1423.00  -4.44676080   1.13499723
1424.00  -4.45828279   1.13736271
1425.00  -4.46981229   1.13973141
1426.00  -4.48134929   1.14210333
1427.00  -4.49289379   1.14447849
1428.00  -4.50444579   1.14685687
1429.00  -4.51600530   1.14923849
1430.00  -4.52757230   1.15162334
1431.00  -4.53914680   1.15401143
1432.00  -4.55072880   1.15640275
1433.00  -4.56231830   1.15879732
1434.00  -4.57391528   1.16119512
1435.00  -4.58551977   1.16359617
1436.00  -4.59713174   1.16600047
1437.00  -4.60875121   1.16840801
1438.00  -4.62037816   1.17081881
1439.00  -4.63201260   1.17323285
1440.00  -4.64365454   1.17565015
1441.00  -4.65530395   1.17807071
1442.00  -4.66696085   1.18049452
1443.00  -4.67862524   1.18292160
1444.00  -4.69029711   1.18535193
1445.00  -4.70197646   1.18778553
1446.00  -4.71366329   1.19022240
1447.00  -4.72535760   1.19266253
1448.00  -4.73705938   1.19510593
1449.00  -4.74876865   1.19755260
1450.00  -4.76048538   1.20000255
1451.00  -4.77220959   1.20245577
1452.00  -4.78394128   1.20491227
1453.00  -4.79568044   1.20737205
1454.00  -4.80742706   1.20983512
1455.00  -4.81918116   1.21230146
1456.00  -4.83094272   1.21477109
1457.00  -4.84271175   1.21724401
1458.00  -4.85448825   1.21972022
1459.00  -4.86627221   1.22219971
1460.00  -4.87806363   1.22468251
1461.00  -4.88986252   1.22716859
1462.00  -4.90166886   1.22965798
1463.00  -4.91348267   1.23215066
1464.00  -4.92530393   1.23464665
1465.00  -4.93713265   1.23714594
1466.00  -4.94896883   1.23964853
1467.00  -4.96081246   1.24215443
1468.00  -4.97266354   1.24466364
1469.00  -4.98452208   1.24717616
1470.00  -4.99638807   1.24969199
1471.00  -5.00826150   1.25221114
1472.00  -5.02014239   1.25473361
1473.00  -5.03203072   1.25725939
1474.00  -5.04392650   1.25978850
1475.00  -5.05582972   1.26232093
1476.00  -5.06774039   1.26485668
1477.00  -5.07965850   1.26739576
1478.00  -5.09158405   1.26993817
1479.00  -5.10351704   1.27248391
1480.00  -5.11545747   1.27503298
1481.00  -5.12740533   1.27758539
1482.00  -5.13936063   1.28014113
1483.00  -5.15132337   1.28270021
1484.00  -5.16329354   1.28526263
1485.00  -5.17527114   1.28782840
1486.00  -5.18725618   1.29039750
1487.00  -5.19924864   1.29296996
1488.00  -5.21124853   1.29554576
1489.00  -5.22325585   1.29812492
1490.00  -5.23527060   1.30070742
1491.00  -5.24729277   1.30329328
1492.00  -5.25932237   1.30588250
1493.00  -5.27135938   1.30847507
1494.00  -5.28340382   1.31107101
1495.00  -5.29545568   1.31367030
1496.00  -5.30751496   1.31627296
1497.00  -5.31958165   1.31887899
1498.00  -5.33165576   1.32148838
1499.00  -5.34373729   1.32410114
1500.00  -5.35582623   1.32671728
1501.00  -5.36792258   1.32933679
1502.00  -5.38002635   1.33195967
1503.00  -5.39213752   1.33458593
1504.00  -5.40425611   1.33721557
1505.00  -5.41638210   1.33984860
1506.00  -5.42851549   1.34248500
1507.00  -5.44065629   1.34512479
1508.00  -5.45280450   1.34776797
1509.00  -5.46496011   1.35041454
1510.00  -5.47712312   1.35306450
1511.00  -5.48929353   1.35571785
1512.00  -5.50147134   1.35837460
1513.00  -5.51365654   1.36103474
1514.00  -5.52584914   1.36369828
1515.00  -5.53804914   1.36636523
1516.00  -5.55025653   1.36903557
1517.00  -5.56247132   1.37170932
1518.00  -5.57469349   1.37438648
1519.00  -5.58692306   1.37706705
1520.00  -5.59916001   1.37975102
1521.00  -5.61140435   1.38243841
1522.00  -5.62365608   1.38512922
1523.00  -5.63591519   1.38782344
1524.00  -5.64818169   1.39052107
1525.00  -5.66045557   1.39322213
1526.00  -5.67273683   1.39592661
1527.00  -5.68502546   1.39863452
1528.00  -5.69732148   1.40134585
1529.00  -5.70962488   1.40406061
1530.00  -5.72193565   1.40677879
1531.00  -5.73425380   1.40950041
1532.00  -5.74657932   1.41222547
1533.00  -5.75891221   1.41495396
1534.00  -5.77125247   1.41768588
1535.00  -5.78360011   1.42042125
1536.00  -5.79595511   1.42316006
1537.00  -5.80831748   1.42590231
1538.00  -5.82068722   1.42864800
1539.00  -5.83306432   1.43139715
1540.00  -5.84544878   1.43414974
1541.00  -5.85784061   1.43690578
1542.00  -5.87023979   1.43966528
1543.00  -5.88264634   1.44242823
1544.00  -5.89506024   1.44519464
1545.00  -5.90748151   1.44796450
1546.00  -5.91991012   1.45073783
1547.00  -5.93234609   1.45351462
1548.00  -5.94478942   1.45629488
1549.00  -5.95724010   1.45907860
1550.00  -5.96969813   1.46186579
1551.00  -5.98216350   1.46465644
1552.00  -5.99463623   1.46745058
1553.00  -6.00711630   1.47024818
1554.00  -6.01960372   1.47304926
1555.00  -6.03209848   1.47585382
1556.00  -6.04460059   1.47866186
1557.00  -6.05711004   1.48147338
1558.00  -6.06962682   1.48428839
1559.00  -6.08215095   1.48710688
1560.00  -6.09468241   1.48992885
1561.00  -6.10722122   1.49275432
1562.00  -6.11976735   1.49558328
1563.00  -6.13232082   1.49841573
1564.00  -6.14488163   1.50125168
1565.00  -6.15744976   1.50409112
1566.00  -6.17002523   1.50693406
1567.00  -6.18260802   1.50978051
1568.00  -6.19519814   1.51263045
1569.00  -6.20779559   1.51548390
1570.00  -6.22040036   1.51834086
1571.00  -6.23301246   1.52120133
1572.00  -6.24563188   1.52406530
1573.00  -6.25825862   1.52693279
1574.00  -6.27089268   1.52980379
1575.00  -6.28353406   1.53267831
1576.00  -6.29618275   1.53555635
1577.00  -6.30883877   1.53843791
1578.00  -6.32150209   1.54132298
1579.00  -6.33417273   1.54421159
1580.00  -6.34685068   1.54710371
1581.00  -6.35953595   1.54999937
1582.00  -6.37222852   1.55289855
1583.00  -6.38492840   1.55580127
1584.00  -6.39763559   1.55870752
1585.00  -6.41035008   1.56161730
1586.00  -6.42307188   1.56453062
1587.00  -6.43580098   1.56744748
1588.00  -6.44853738   1.57036788
1589.00  -6.46128108   1.57329183
1590.00  -6.47403208   1.57621931
1591.00  -6.48679038   1.57915035
1592.00  -6.49955598   1.58208493
1593.00  -6.51232887   1.58502306
1594.00  -6.52510905   1.58796475
1595.00  -6.53789653   1.59090999
1596.00  -6.55069130   1.59385878
1597.00  -6.56349335   1.59681114
1598.00  -6.57630270   1.59976705
1599.00  -6.58911934   1.60272652
1600.00  -6.60194326   1.60568956
1601.00  -6.61477446   1.60865616
1602.00  -6.62761295   1.61162633
1603.00  -6.64045872   1.61460007
1604.00  -6.65331177   1.61757738
1605.00  -6.66617210   1.62055827
1606.00  -6.67903971   1.62354273
1607.00  -6.69191459   1.62653076
1608.00  -6.70479675   1.62952237
1609.00  -6.71768619   1.63251757
1610.00  -6.73058290   1.63551634
1611.00  -6.74348688   1.63851870
1612.00  -6.75639812   1.64152465
1613.00  -6.76931664   1.64453418
1614.00  -6.78224243   1.64754731
1615.00  -6.79517548   1.65056402
1616.00  -6.80811580   1.65358433
1617.00  -6.82106338   1.65660824
1618.00  -6.83401822   1.65963574
1619.00  -6.84698033   1.66266684
1620.00  -6.85994969   1.66570155
1621.00  -6.87292631   1.66873985
1622.00  -6.88591019   1.67178176
1623.00  -6.89890133   1.67482728
1624.00  -6.91189972   1.67787641
1625.00  -6.92490536   1.68092914
1626.00  -6.93791825   1.68398549
1627.00  -6.95093840   1.68704546
1628.00  -6.96396579   1.69010904
1629.00  -6.97700043   1.69317623
1630.00  -6.99004232   1.69624705
1631.00  -7.00309145   1.69932149
1632.00  -7.01614783   1.70239955
1633.00  -7.02921145   1.70548124
1634.00  -7.04228231   1.70856656
1635.00  -7.05536041   1.71165550
1636.00  -7.06844575   1.71474808
1637.00  -7.08153832   1.71784429
1638.00  -7.09463813   1.72094413
1639.00  -7.10774518   1.72404761
1640.00  -7.12085946   1.72715473
1641.00  -7.13398097   1.73026549
1642.00  -7.14710971   1.73337989
1643.00  -7.16024568   1.73649793
1644.00  -7.17338887   1.73961963
1645.00  -7.18653930   1.74274497
1646.00  -7.19969695   1.74587396
1647.00  -7.21286182   1.74900660
1648.00  -7.22603392   1.75214289
1649.00  -7.23921323   1.75528284
1650.00  -7.25239977   1.75842645
1651.00  -7.26559352   1.76157371
1652.00  -7.27879449   1.76472464
1653.00  -7.29200268   1.76787923
1654.00  -7.30521808   1.77103748
1655.00  -7.31844070   1.77419940
1656.00  -7.33167052   1.77736499
1657.00  -7.34490756   1.78053425
1658.00  -7.35815180   1.78370718
1659.00  -7.37140326   1.78688378
1660.00  -7.38466191   1.79006406
1661.00  -7.39792778   1.79324802
1662.00  -7.41120085   1.79643566
1663.00  -7.42448112   1.79962698
1664.00  -7.43776859   1.80282198
1665.00  -7.45106326   1.80602067
1666.00  -7.46436513   1.80922304
1667.00  -7.47767419   1.81242910
1668.00  -7.49099045   1.81563885
1669.00  -7.50431391   1.81885230
1670.00  -7.51764455   1.82206944
1671.00  -7.53098239   1.82529027
1672.00  -7.54432742   1.82851481
1673.00  -7.55767964   1.83174304
1674.00  -7.57103904   1.83497497
1675.00  -7.58440563   1.83821061
1676.00  -7.59777941   1.84144995
1677.00  -7.61116037   1.84469300
1678.00  -7.62454851   1.84793976
1679.00  -7.63794383   1.85119023
1680.00  -7.65134633   1.85444442
1681.00  -7.66475601   1.85770231
1682.00  -7.67817286   1.86096393
1683.00  -7.69159689   1.86422926
1684.00  -7.70502810   1.86749831
1685.00  -7.71846647   1.87077108
1686.00  -7.73191202   1.87404758
1687.00  -7.74536474   1.87732780
1688.00  -7.75882462   1.88061175
1689.00  -7.77229168   1.88389943
1690.00  -7.78576589   1.88719084
1691.00  -7.79924727   1.89048598
1692.00  -7.81273582   1.89378486
1693.00  -7.82623153   1.89708747
1694.00  -7.83973439   1.90039383
1695.00  -7.85324442   1.90370392
1696.00  -7.86676160   1.90701775
1697.00  -7.88028594   1.91033533
1698.00  -7.89381743   1.91365666
1699.00  -7.90735608   1.91698173
1700.00  -7.92090187   1.92031055
1701.00  -7.93445482   1.92364312
1702.00  -7.94801492   1.92697944
1703.00  -7.96158217   1.93031952
1704.00  -7.97515656   1.93366336
1705.00  -7.98873809   1.93701095
1706.00  -8.00232677   1.94036231
1707.00  -8.01592260   1.94371743
1708.00  -8.02952556   1.94707631
1709.00  -8.04313566   1.95043895
1710.00  -8.05675291   1.95380537
1711.00  -8.07037728   1.95717555
1712.00  -8.08400880   1.96054951
1713.00  -8.09764744   1.96392723
1714.00  -8.11129322   1.96730874
1715.00  -8.12494614   1.97069402
1716.00  -8.13860618   1.97408307
1717.00  -8.15227335   1.97747591
1718.00  -8.16594764   1.98087253
1719.00  -8.17962907   1.98427294
1720.00  -8.19331761   1.98767713
1721.00  -8.20701328   1.99108510
1722.00  -8.22071607   1.99449687
1723.00  -8.23442599   1.99791243
1724.00  -8.24814302   2.00133178
1725.00  -8.26186716   2.00475492
1726.00  -8.27559843   2.00818187
1727.00  -8.28933681   2.01161261
1728.00  -8.30308230   2.01504715
1729.00  -8.31683490   2.01848549
1730.00  -8.33059461   2.02192764
1731.00  -8.34436144   2.02537359
1732.00  -8.35813537   2.02882335
1733.00  -8.37191640   2.03227692
1734.00  -8.38570455   2.03573430
1735.00  -8.39949979   2.03919549
1736.00  -8.41330214   2.04266050
1737.00  -8.42711159   2.04612932
1738.00  -8.44092814   2.04960197
1739.00  -8.45475178   2.05307843
1740.00  -8.46858252   2.05655871
1741.00  -8.48242036   2.06004282
1742.00  -8.49626529   2.06353076
1743.00  -8.51011731   2.06702252
1744.00  -8.52397643   2.07051811
1745.00  -8.53784263   2.07401753
1746.00  -8.55171592   2.07752078
1747.00  -8.56559630   2.08102787
1748.00  -8.57948377   2.08453880
1749.00  -8.59337832   2.08805356
1750.00  -8.60727995   2.09157216
1751.00  -8.62118866   2.09509461
1752.00  -8.63510445   2.09862090
1753.00  -8.64902732   2.10215103
1754.00  -8.66295727   2.10568501
1755.00  -8.67689429   2.10922284
1756.00  -8.69083839   2.11276452
1757.00  -8.70478956   2.11631005
1758.00  -8.71874780   2.11985944
1759.00  -8.73271311   2.12341268
1760.00  -8.74668549   2.12696978
1761.00  -8.76066493   2.13053074
1762.00  -8.77465144   2.13409556
1763.00  -8.78864502   2.13766425
1764.00  -8.80264566   2.14123680
1765.00  -8.81665336   2.14481321
1766.00  -8.83066812   2.14839350
1767.00  -8.84468994   2.15197765
1768.00  -8.85871882   2.15556568
1769.00  -8.87275475   2.15915758
1770.00  -8.88679774   2.16275336
1771.00  -8.90084778   2.16635302
1772.00  -8.91490487   2.16995655
1773.00  -8.92896901   2.17356397
1774.00  -8.94304020   2.17717526
1775.00  -8.95711844   2.18079045
1776.00  -8.97120372   2.18440951
1777.00  -8.98529605   2.18803247
1778.00  -8.99939542   2.19165932
1779.00  -9.01350183   2.19529006
1780.00  -9.02761529   2.19892469
1781.00  -9.04173578   2.20256322
1782.00  -9.05586331   2.20620564
1783.00  -9.06999788   2.20985197
1784.00  -9.08413948   2.21350219
1785.00  -9.09828811   2.21715632
1786.00  -9.11244378   2.22081435
1787.00  -9.12660647   2.22447628
1788.00  -9.14077620   2.22814213
1789.00  -9.15495295   2.23181188
1790.00  -9.16913673   2.23548555
1791.00  -9.18332753   2.23916312
1792.00  -9.19752535   2.24284462
1793.00  -9.21173020   2.24653003
1794.00  -9.22594207   2.25021935
1795.00  -9.24016096   2.25391260
1796.00  -9.25438686   2.25760977
1797.00  -9.26861978   2.26131086
1798.00  -9.28285972   2.26501588
1799.00  -9.29710667   2.26872483
1800.00  -9.31136063   2.27243770
1801.00  -9.32562160   2.27615451
1802.00  -9.33988958   2.27987525
1803.00  -9.35416456   2.28359992
1804.00  -9.36844656   2.28732853
1805.00  -9.38273555   2.29106107
1806.00  -9.39703155   2.29479756
1807.00  -9.41133456   2.29853799
1808.00  -9.42564456   2.30228235
1809.00  -9.43996156   2.30603067
1810.00  -9.45428556   2.30978293
1811.00  -9.46861656   2.31353914
1812.00  -9.48295455   2.31729930
1813.00  -9.49729953   2.32106341
1814.00  -9.51165151   2.32483147
1815.00  -9.52601047   2.32860349
1816.00  -9.54037642   2.33237947
1817.00  -9.55474937   2.33615941
1818.00  -9.56912929   2.33994330
1819.00  -9.58351621   2.34373116
1820.00  -9.59791010   2.34752298
1821.00  -9.61231098   2.35131877
1822.00  -9.62671883   2.35511853
1823.00  -9.64113367   2.35892225
1824.00  -9.65555548   2.36272995
1825.00  -9.66998427   2.36654162
1826.00  -9.68442004   2.37035726
1827.00  -9.69886277   2.37417689
1828.00  -9.71331248   2.37800048
1829.00  -9.72776916   2.38182806
1830.00  -9.74223280   2.38565962
1831.00  -9.75670342   2.38949516
1832.00  -9.77118100   2.39333469
1833.00  -9.78566554   2.39717821
1834.00  -9.80015705   2.40102571
1835.00  -9.81465552   2.40487721
1836.00  -9.82916094   2.40873269
1837.00  -9.84367333   2.41259217
1838.00  -9.85819267   2.41645565
1839.00  -9.87271897   2.42032312
1840.00  -9.88725223   2.42419459
1841.00  -9.90179243   2.42807006
1842.00  -9.91633959   2.43194954
1843.00  -9.93089370   2.43583301
1844.00  -9.94545475   2.43972050
1845.00  -9.96002276   2.44361199
1846.00  -9.97459770   2.44750749
1847.00  -9.98917960   2.45140701
1848.00 -10.00376843   2.45531053
1849.00 -10.01836421   2.45921807
1850.00 -10.03296692   2.46312963
1851.00 -10.04757658   2.46704520
1852.00 -10.06219317   2.47096480
1853.00 -10.07681669   2.47488841
1854.00 -10.09144715   2.47881605
1855.00 -10.10608454   2.48274772
1856.00 -10.12072886   2.48668341
1857.00 -10.13538011   2.49062313
1858.00 -10.15003829   2.49456688
1859.00 -10.16470340   2.49851466
1860.00 -10.17937543   2.50246647
1861.00 -10.19405439   2.50642232
1862.00 -10.20874026   2.51038221
1863.00 -10.22343306   2.51434614
1864.00 -10.23813278   2.51831410
1865.00 -10.25283941   2.52228611
1866.00 -10.26755296   2.52626217
1867.00 -10.28227343   2.53024226
1868.00 -10.29700080   2.53422641
1869.00 -10.31173509   2.53821461
1870.00 -10.32647630   2.54220685
1871.00 -10.34122440   2.54620315
1872.00 -10.35597942   2.55020350
1873.00 -10.37074134   2.55420791
1874.00 -10.38551017   2.55821638
1875.00 -10.40028590   2.56222890
1876.00 -10.41506853   2.56624549
1877.00 -10.42985807   2.57026614
1878.00 -10.44465450   2.57429086
1879.00 -10.45945782   2.57831964
1880.00 -10.47426805   2.58235249
1881.00 -10.48908517   2.58638940
1882.00 -10.50390918   2.59043039
1883.00 -10.51874008   2.59447546
1884.00 -10.53357787   2.59852460
1885.00 -10.54842255   2.60257781
1886.00 -10.56327411   2.60663510
1887.00 -10.57813257   2.61069648
1888.00 -10.59299790   2.61476193
1889.00 -10.60787012   2.61883147
1890.00 -10.62274922   2.62290509
1891.00 -10.63763519   2.62698280
1892.00 -10.65252805   2.63106460
1893.00 -10.66742778   2.63515049
1894.00 -10.68233439   2.63924047
1895.00 -10.69724787   2.64333454
1896.00 -10.71216822   2.64743271
1897.00 -10.72709545   2.65153498
1898.00 -10.74202954   2.65564134
1899.00 -10.75697050   2.65975181
1900.00 -10.77191833   2.66386637
1901.00 -10.78687302   2.66798504
1902.00 -10.80183457   2.67210782
1903.00 -10.81680299   2.67623470
1904.00 -10.83177826   2.68036570
1905.00 -10.84676040   2.68450080
1906.00 -10.86174939   2.68864002
1907.00 -10.87674523   2.69278335
1908.00 -10.89174794   2.69693079
1909.00 -10.90675749   2.70108235
1910.00 -10.92177389   2.70523804
1911.00 -10.93679715   2.70939784
1912.00 -10.95182725   2.71356176
1913.00 -10.96686420   2.71772981
1914.00 -10.98190800   2.72190199
1915.00 -10.99695863   2.72607829
1916.00 -11.01201612   2.73025872
1917.00 -11.02708044   2.73444328
1918.00 -11.04215160   2.73863198
1919.00 -11.05722960   2.74282481
1920.00 -11.07231443   2.74702177
1921.00 -11.08740610   2.75122288
1922.00 -11.10250460   2.75542812
1923.00 -11.11760994   2.75963750
1924.00 -11.13272210   2.76385103
1925.00 -11.14784110   2.76806870
1926.00 -11.16296692   2.77229051
1927.00 -11.17809957   2.77651648
1928.00 -11.19323904   2.78074659
1929.00 -11.20838533   2.78498086
1930.00 -11.22353845   2.78921927
1931.00 -11.23869838   2.79346185
1932.00 -11.25386514   2.79770857
1933.00 -11.26903871   2.80195946
1934.00 -11.28421909   2.80621450
1935.00 -11.29940629   2.81047371
1936.00 -11.31460030   2.81473708
1937.00 -11.32980113   2.81900461
1938.00 -11.34500876   2.82327631
1939.00 -11.36022320   2.82755218
1940.00 -11.37544444   2.83183222
1941.00 -11.39067249   2.83611643
1942.00 -11.40590735   2.84040481
1943.00 -11.42114900   2.84469737
1944.00 -11.43639746   2.84899410
1945.00 -11.45165271   2.85329501
1946.00 -11.46691477   2.85760010
1947.00 -11.48218361   2.86190937
1948.00 -11.49745926   2.86622282
1949.00 -11.51274169   2.87054046
1950.00 -11.52803092   2.87486229
1951.00 -11.54332693   2.87918830
1952.00 -11.55862973   2.88351850
1953.00 -11.57393933   2.88785289
1954.00 -11.58925570   2.89219148
1955.00 -11.60457886   2.89653426
1956.00 -11.61990880   2.90088124
1957.00 -11.63524552   2.90523241
1958.00 -11.65058902   2.90958779
1959.00 -11.66593930   2.91394736
1960.00 -11.68129636   2.91831114
1961.00 -11.69666019   2.92267912
1962.00 -11.71203079   2.92705131
1963.00 -11.72740816   2.93142771
1964.00 -11.74279231   2.93580832
1965.00 -11.75818322   2.94019313
1966.00 -11.77358090   2.94458216
1967.00 -11.78898534   2.94897541
1968.00 -11.80439655   2.95337287
1969.00 -11.81981452   2.95777455
1970.00 -11.83523925   2.96218045
1971.00 -11.85067074   2.96659056
1972.00 -11.86610899   2.97100491
1973.00 -11.88155400   2.97542347
1974.00 -11.89700576   2.97984626
1975.00 -11.91246427   2.98427328
1976.00 -11.92792954   2.98870453
1977.00 -11.94340155   2.99314001
1978.00 -11.95888032   2.99757973
1979.00 -11.97436583   3.00202367
1980.00 -11.98985809   3.00647186
1981.00 -12.00535709   3.01092428
1982.00 -12.02086283   3.01538093
1983.00 -12.03637532   3.01984183
1984.00 -12.05189454   3.02430698
1985.00 -12.06742050   3.02877636
1986.00 -12.08295320   3.03325000
1987.00 -12.09849264   3.03772788
1988.00 -12.11403880   3.04221001
1989.00 -12.12959170   3.04669639
1990.00 -12.14515133   3.05118702
1991.00 -12.16071769   3.05568190
1992.00 -12.17629078   3.06018104
1993.00 -12.19187059   3.06468444
1994.00 -12.20745712   3.06919210
1995.00 -12.22305038   3.07370402
1996.00 -12.23865036   3.07822020
1997.00 -12.25425706   3.08274064
1998.00 -12.26987048   3.08726535
1999.00 -12.28549061   3.09179433
2000.00 -12.30111746   3.09632757
