wavelength(nm)         real         imag
200.00   3.68116467   0.00418234
201.00   3.67897166   0.00424537
202.00   3.67676772   0.00430904
203.00   3.67455286   0.00437333
204.00   3.67232708   0.00443827
205.00   3.67009038   0.00450384
206.00   3.66784276   0.00457005
207.00   3.66558422   0.00463691
208.00   3.66331476   0.00470442
209.00   3.66103438   0.00477258
210.00   3.65874308   0.00484140
211.00   3.65644086   0.00491087
212.00   3.65412772   0.00498101
213.00   3.65180366   0.00505181
214.00   3.64946869   0.00512328
215.00   3.64712279   0.00519541
216.00   3.64476598   0.00526822
217.00   3.64239825   0.00534171
218.00   3.64001960   0.00541588
219.00   3.63763004   0.00549073
220.00   3.63522955   0.00556627
221.00   3.63281815   0.00564249
222.00   3.63039584   0.00571941
223.00   3.62796261   0.00579703
224.00   3.62551846   0.00587534
225.00   3.62306340   0.00595436
226.00   3.62059742   0.00603408
227.00   3.61812052   0.00611450
228.00   3.61563271   0.00619564
229.00   3.61313399   0.00627750
230.00   3.61062435   0.00636007
231.00   3.60810380   0.00644336
232.00   3.60557233   0.00652737
233.00   3.60302995   0.00661212
234.00   3.60047666   0.00669759
235.00   3.59791246   0.00678379
236.00   3.59533734   0.00687073
237.00   3.59275131   0.00695841
238.00   3.59015436   0.00704684
239.00   3.58754651   0.00713601
240.00   3.58492774   0.00722592
241.00   3.58229807   0.00731659
242.00   3.57965748   0.00740802
243.00   3.57700598   0.00750020
244.00   3.57434357   0.00759314
245.00   3.57167025   0.00768685
246.00   3.56898602   0.00778132
247.00   3.56629088   0.00787657
248.00   3.56358483   0.00797259
249.00   3.56086788   0.00806938
250.00   3.55814001   0.00816696
251.00   3.55540124   0.00826531
252.00   3.55265155   0.00836446
253.00   3.54989096   0.00846439
254.00   3.54711947   0.00856512
255.00   3.54433706   0.00866664
256.00   3.54154375   0.00876896
257.00   3.53873953   0.00887208
258.00   3.53592441   0.00897601
259.00   3.53309838   0.00908074
260.00   3.53026144   0.00918629
261.00   3.52741360   0.00929265
262.00   3.52455486   0.00939982
263.00   3.52168521   0.00950782
264.00   3.51880465   0.00961664
265.00   3.51591319   0.00972629
266.00   3.51301083   0.00983677
267.00   3.51009757   0.00994808
268.00   3.50717340   0.01006022
269.00   3.50423833   0.01017321
270.00   3.50129235   0.01028704
271.00   3.49833547   0.01040171
272.00   3.49536770   0.01051723
273.00   3.49238902   0.01063360
274.00   3.48939944   0.01075083
275.00   3.48639896   0.01086892
276.00   3.48338757   0.01098786
277.00   3.48036529   0.01110767
278.00   3.47733211   0.01122835
279.00   3.47428803   0.01134990
280.00   3.47123305   0.01147232
281.00   3.46816717   0.01159562
282.00   3.46509039   0.01171980
283.00   3.46200271   0.01184486
284.00   3.45890414   0.01197080
285.00   3.45579467   0.01209764
286.00   3.45267430   0.01222536
287.00   3.44954303   0.01235399
288.00   3.44640087   0.01248351
289.00   3.44324781   0.01261393
290.00   3.44008386   0.01274526
291.00   3.43690901   0.01287749
292.00   3.43372327   0.01301064
293.00   3.43052663   0.01314470
294.00   3.42731910   0.01327967
295.00   3.42410067   0.01341557
296.00   3.42087135   0.01355239
297.00   3.41763113   0.01369013
298.00   3.41438003   0.01382881
299.00   3.41111803   0.01396842
300.00   3.40784513   0.01410896
301.00   3.40456135   0.01425044
302.00   3.40126667   0.01439287
303.00   3.39796111   0.01453623
304.00   3.39464465   0.01468055
305.00   3.39131730   0.01482582
306.00   3.38797906   0.01497204
307.00   3.38462994   0.01511922
308.00   3.38126992   0.01526736
309.00   3.37789901   0.01541647
310.00   3.37451722   0.01556654
311.00   3.37112453   0.01571758
312.00   3.36772096   0.01586960
313.00   3.36430650   0.01602259
314.00   3.36088116   0.01617656
315.00   3.35744493   0.01633151
316.00   3.35399781   0.01648745
317.00   3.35053980   0.01664437
318.00   3.34707091   0.01680229
319.00   3.34359114   0.01696120
320.00   3.34010048   0.01712111
321.00   3.33659893   0.01728203
322.00   3.33308650   0.01744394
323.00   3.32956319   0.01760686
324.00   3.32602899   0.01777080
325.00   3.32248391   0.01793574
326.00   3.31892795   0.01810171
327.00   3.31536111   0.01826869
328.00   3.31178338   0.01843669
329.00   3.30819477   0.01860573
330.00   3.30459529   0.01877579
331.00   3.30098492   0.01894688
332.00   3.29736367   0.01911901
333.00   3.29373154   0.01929217
334.00   3.29008853   0.01946638
335.00   3.28643464   0.01964163
336.00   3.28276988   0.01981793
337.00   3.27909423   0.01999528
338.00   3.27540771   0.02017369
339.00   3.27171031   0.02035315
340.00   3.26800203   0.02053367
341.00   3.26428288   0.02071525
342.00   3.26055285   0.02089790
343.00   3.25681195   0.02108162
344.00   3.25306017   0.02126641
345.00   3.24929751   0.02145228
346.00   3.24552398   0.02163923
347.00   3.24173958   0.02182726
348.00   3.23794430   0.02201637
349.00   3.23413815   0.02220657
350.00   3.23032112   0.02239786
351.00   3.22649323   0.02259025
352.00   3.22265446   0.02278373
353.00   3.21880482   0.02297832
354.00   3.21494431   0.02317400
355.00   3.21107292   0.02337080
356.00   3.20719067   0.02356870
357.00   3.20329755   0.02376772
358.00   3.19939355   0.02396785
359.00   3.19547869   0.02416910
360.00   3.19155296   0.02437148
361.00   3.18761636   0.02457497
362.00   3.18366890   0.02477960
363.00   3.17971056   0.02498536
364.00   3.17574136   0.02519225
365.00   3.17176130   0.02540028
366.00   3.16777036   0.02560945
367.00   3.16376856   0.02581977
368.00   3.15975590   0.02603123
369.00   3.15573237   0.02624384
370.00   3.15169798   0.02645761
371.00   3.14765272   0.02667253
372.00   3.14359660   0.02688861
373.00   3.13952961   0.02710585
374.00   3.13545177   0.02732426
375.00   3.13136306   0.02754384
376.00   3.12726349   0.02776459
377.00   3.12315306   0.02798651
378.00   3.11903176   0.02820961
379.00   3.11489961   0.02843389
380.00   3.11075660   0.02865936
381.00   3.10660273   0.02888601
382.00   3.10243799   0.02911386
383.00   3.09826240   0.02934289
384.00   3.09407596   0.02957313
385.00   3.08987865   0.02980456
386.00   3.08567049   0.03003720
387.00   3.08145147   0.03027104
388.00   3.07722159   0.03050609
389.00   3.07298086   0.03074235
390.00   3.06872928   0.03097983
391.00   3.06446683   0.03121853
392.00   3.06019354   0.03145844
393.00   3.05590939   0.03169958
394.00   3.05161438   0.03194195
395.00   3.04730853   0.03218555
396.00   3.04299182   0.03243038
397.00   3.03866426   0.03267645
398.00   3.03432585   0.03292376
399.00   3.02997658   0.03317231
400.00   3.02561647   0.03342211
401.00   3.02124550   0.03367316
402.00   3.01686369   0.03392546
403.00   3.01247103   0.03417901
404.00   3.00806751   0.03443383
405.00   3.00365315   0.03468990
406.00   2.99922795   0.03494724
407.00   2.99479189   0.03520585
408.00   2.99034499   0.03546572
409.00   2.98588724   0.03572687
410.00   2.98141865   0.03598930
411.00   2.97693921   0.03625301
412.00   2.97244892   0.03651800
413.00   2.96794779   0.03678428
414.00   2.96343582   0.03705184
415.00   2.95891300   0.03732070
416.00   2.95437935   0.03759086
417.00   2.94983484   0.03786231
418.00   2.94527950   0.03813506
419.00   2.94071332   0.03840912
420.00   2.93613629   0.03868449
421.00   2.93154843   0.03896117
422.00   2.92694972   0.03923916
423.00   2.92234017   0.03951847
424.00   2.91771979   0.03979909
425.00   2.91308857   0.04008105
426.00   2.90844651   0.04036432
427.00   2.90379361   0.04064893
428.00   2.89912988   0.04093487
429.00   2.89445530   0.04122215
430.00   2.88976990   0.04151076
431.00   2.88507366   0.04180072
432.00   2.88036658   0.04209202
433.00   2.87564867   0.04238467
434.00   2.87091992   0.04267867
435.00   2.86618034   0.04297402
436.00   2.86142993   0.04327073
437.00   2.85666869   0.04356880
438.00   2.85189661   0.04386824
439.00   2.84711371   0.04416904
440.00   2.84231997   0.04447121
441.00   2.83751540   0.04477475
442.00   2.83270001   0.04507967
443.00   2.82787378   0.04538597
444.00   2.82303673   0.04569364
445.00   2.81818884   0.04600271
446.00   2.81333013   0.04631316
447.00   2.80846060   0.04662500
448.00   2.80358023   0.04693824
449.00   2.79868904   0.04725287
450.00   2.79378703   0.04756891
451.00   2.78887419   0.04788635
452.00   2.78395052   0.04820519
453.00   2.77901603   0.04852545
454.00   2.77407072   0.04884711
455.00   2.76911459   0.04917020
456.00   2.76414763   0.04949470
457.00   2.75916985   0.04982062
458.00   2.75418126   0.05014797
459.00   2.74918184   0.05047674
460.00   2.74417160   0.05080695
461.00   2.73915054   0.05113859
462.00   2.73411866   0.05147167
463.00   2.72907596   0.05180619
464.00   2.72402245   0.05214215
465.00   2.71895812   0.05247956
466.00   2.71388297   0.05281842
467.00   2.70879700   0.05315873
468.00   2.70370022   0.05350050
469.00   2.69859263   0.05384372
470.00   2.69347422   0.05418841
471.00   2.68834500   0.05453456
472.00   2.68320496   0.05488218
473.00   2.67805411   0.05523127
474.00   2.67289245   0.05558184
475.00   2.66771997   0.05593388
476.00   2.66253669   0.05628740
477.00   2.65734259   0.05664241
478.00   2.65213769   0.05699890
479.00   2.64692197   0.05735689
480.00   2.64169545   0.05771636
481.00   2.63645812   0.05807733
482.00   2.63120998   0.05843980
483.00   2.62595103   0.05880377
484.00   2.62068128   0.05916925
485.00   2.61540072   0.05953623
486.00   2.61010935   0.05990473
487.00   2.60480718   0.06027474
488.00   2.59949421   0.06064626
489.00   2.59417043   0.06101931
490.00   2.58883585   0.06139388
491.00   2.58349046   0.06176998
492.00   2.57813428   0.06214760
493.00   2.57276729   0.06252676
494.00   2.56738950   0.06290745
495.00   2.56200091   0.06328969
496.00   2.55660153   0.06367346
497.00   2.55119134   0.06405878
498.00   2.54577035   0.06444565
499.00   2.54033857   0.06483407
500.00   2.53489599   0.06522404
501.00   2.52944261   0.06561557
502.00   2.52397844   0.06600866
503.00   2.51850347   0.06640331
504.00   2.51301771   0.06679953
505.00   2.50752115   0.06719731
506.00   2.50201380   0.06759668
507.00   2.49649565   0.06799761
508.00   2.49096671   0.06840013
509.00   2.48542699   0.06880422
510.00   2.47987647   0.06920990
511.00   2.47431515   0.06961717
512.00   2.46874305   0.07002603
513.00   2.46316016   0.07043648
514.00   2.45756648   0.07084853
515.00   2.45196201   0.07126218
516.00   2.44634676   0.07167744
517.00   2.44072072   0.07209429
518.00   2.43508389   0.07251276
519.00   2.42943627   0.07293284
520.00   2.42377787   0.07335454
521.00   2.41810869   0.07377785
522.00   2.41242872   0.07420279
523.00   2.40673797   0.07462935
524.00   2.40103643   0.07505754
525.00   2.39532411   0.07548735
526.00   2.38960102   0.07591880
527.00   2.38386714   0.07635189
528.00   2.37812248   0.07678662
529.00   2.37236704   0.07722299
530.00   2.36660082   0.07766101
531.00   2.36082382   0.07810068
532.00   2.35503605   0.07854199
533.00   2.34923750   0.07898497
534.00   2.34342817   0.07942960
535.00   2.33760806   0.07987589
536.00   2.33177719   0.08032385
537.00   2.32593553   0.08077347
538.00   2.32008310   0.08122476
539.00   2.31421990   0.08167773
540.00   2.30834593   0.08213237
541.00   2.30246118   0.08258870
542.00   2.29656567   0.08304670
543.00   2.29065938   0.08350640
544.00   2.28474232   0.08396778
545.00   2.27881449   0.08443085
546.00   2.27287590   0.08489561
547.00   2.26692653   0.08536208
548.00   2.26096640   0.08583024
549.00   2.25499550   0.08630011
550.00   2.24901384   0.08677169
551.00   2.24302141   0.08724498
552.00   2.23701821   0.08771998
553.00   2.23100425   0.08819669
554.00   2.22497953   0.08867513
555.00   2.21894404   0.08915528
556.00   2.21289779   0.08963717
557.00   2.20684078   0.09012078
558.00   2.20077301   0.09060612
559.00   2.19469448   0.09109320
560.00   2.18860519   0.09158201
561.00   2.18250513   0.09207257
562.00   2.17639433   0.09256486
563.00   2.17027276   0.09305891
564.00   2.16414043   0.09355470
565.00   2.15799735   0.09405225
566.00   2.15184352   0.09455155
567.00   2.14567893   0.09505262
568.00   2.13950358   0.09555544
569.00   2.13331748   0.09606003
570.00   2.12712063   0.09656639
571.00   2.12091303   0.09707451
572.00   2.11469467   0.09758442
573.00   2.10846556   0.09809609
574.00   2.10222571   0.09860955
575.00   2.09597510   0.09912480
576.00   2.08971374   0.09964182
577.00   2.08344164   0.10016064
578.00   2.07715879   0.10068125
579.00   2.07086519   0.10120366
580.00   2.06456084   0.10172786
581.00   2.05824575   0.10225387
582.00   2.05191992   0.10278168
583.00   2.04558334   0.10331130
584.00   2.03923601   0.10384272
585.00   2.03287795   0.10437597
586.00   2.02650914   0.10491102
587.00   2.02012959   0.10544790
588.00   2.01373930   0.10598660
589.00   2.00733827   0.10652713
590.00   2.00092650   0.10706949
591.00   1.99450399   0.10761367
592.00   1.98807074   0.10815970
593.00   1.98162676   0.10870756
594.00   1.97517204   0.10925726
595.00   1.96870658   0.10980880
596.00   1.96223039   0.11036220
597.00   1.95574347   0.11091744
598.00   1.94924581   0.11147453
599.00   1.94273742   0.11203349
600.00   1.93621829   0.11259430
601.00   1.92968843   0.11315697
602.00   1.92314785   0.11372151
603.00   1.91659653   0.11428792
604.00   1.91003448   0.11485619
605.00   1.90346171   0.11542635
606.00   1.89687820   0.11599838
607.00   1.89028397   0.11657229
608.00   1.88367901   0.11714808
609.00   1.87706333   0.11772576
610.00   1.87043692   0.11830533
611.00   1.86379979   0.11888680
612.00   1.85715193   0.11947015
613.00   1.85049335   0.12005541
614.00   1.84382405   0.12064257
615.00   1.83714402   0.12123163
616.00   1.83045328   0.12182260
617.00   1.82375181   0.12241549
618.00   1.81703963   0.12301028
619.00   1.81031672   0.12360700
620.00   1.80358310   0.12420563
621.00   1.79683876   0.12480618
622.00   1.79008371   0.12540866
623.00   1.78331794   0.12601308
624.00   1.77654145   0.12661942
625.00   1.76975425   0.12722769
626.00   1.76295634   0.12783791
627.00   1.75614771   0.12845007
628.00   1.74932837   0.12906417
629.00   1.74249832   0.12968022
630.00   1.73565756   0.13029821
631.00   1.72880609   0.13091816
632.00   1.72194391   0.13154007
633.00   1.71507102   0.13216394
634.00   1.70818742   0.13278977
635.00   1.70129312   0.13341756
636.00   1.69438811   0.13404732
637.00   1.68747240   0.13467906
638.00   1.68054598   0.13531276
639.00   1.67360886   0.13594845
640.00   1.66666103   0.13658611
641.00   1.65970250   0.13722576
642.00   1.65273327   0.13786740
643.00   1.64575334   0.13851102
644.00   1.63876271   0.13915664
645.00   1.63176138   0.13980426
646.00   1.62474935   0.14045387
647.00   1.61772662   0.14110548
648.00   1.61069320   0.14175910
649.00   1.60364908   0.14241472
650.00   1.59659426   0.14307236
651.00   1.58952875   0.14373201
652.00   1.58245254   0.14439367
653.00   1.57536565   0.14505736
654.00   1.56826806   0.14572307
655.00   1.56115977   0.14639080
656.00   1.55404080   0.14706056
657.00   1.54691114   0.14773236
658.00   1.53977078   0.14840619
659.00   1.53261974   0.14908205
660.00   1.52545801   0.14975996
661.00   1.51828559   0.15043991
662.00   1.51110249   0.15112191
663.00   1.50390870   0.15180596
664.00   1.49670423   0.15249206
665.00   1.48948907   0.15318022
666.00   1.48226323   0.15387043
667.00   1.47502671   0.15456271
668.00   1.46777950   0.15525705
669.00   1.46052162   0.15595346
670.00   1.45325305   0.15665195
671.00   1.44597381   0.15735250
672.00   1.43868388   0.15805513
673.00   1.43138328   0.15875984
674.00   1.42407200   0.15946664
675.00   1.41675005   0.16017552
676.00   1.40941742   0.16088649
677.00   1.40207412   0.16159955
678.00   1.39472014   0.16231471
679.00   1.38735549   0.16303196
680.00   1.37998017   0.16375132
681.00   1.37259417   0.16447278
682.00   1.36519751   0.16519634
683.00   1.35779017   0.16592202
684.00   1.35037217   0.16664981
685.00   1.34294350   0.16737972
686.00   1.33550416   0.16811174
687.00   1.32805415   0.16884589
688.00   1.32059348   0.16958216
689.00   1.31312214   0.17032056
690.00   1.30564014   0.17106109
691.00   1.29814748   0.17180376
692.00   1.29064415   0.17254856
693.00   1.28313016   0.17329550
694.00   1.27560552   0.17404459
695.00   1.26807021   0.17479582
696.00   1.26052424   0.17554920
697.00   1.25296761   0.17630473
698.00   1.24540033   0.17706242
699.00   1.23782239   0.17782226
700.00   1.23023379   0.17858427
701.00   1.22263454   0.17934844
702.00   1.21502463   0.18011478
703.00   1.20740407   0.18088329
704.00   1.19977286   0.18165397
705.00   1.19213099   0.18242683
706.00   1.18447848   0.18320186
707.00   1.17681531   0.18397908
708.00   1.16914150   0.18475848
709.00   1.16145703   0.18554008
710.00   1.15376192   0.18632386
711.00   1.14605616   0.18710983
712.00   1.13833976   0.18789801
713.00   1.13061271   0.18868838
714.00   1.12287501   0.18948096
715.00   1.11512668   0.19027574
716.00   1.10736770   0.19107273
717.00   1.09959807   0.19187194
718.00   1.09181781   0.19267335
719.00   1.08402691   0.19347699
720.00   1.07622536   0.19428285
721.00   1.06841318   0.19509093
722.00   1.06059036   0.19590124
723.00   1.05275691   0.19671378
724.00   1.04491281   0.19752855
725.00   1.03705809   0.19834556
726.00   1.02919273   0.19916480
727.00   1.02131673   0.19998629
728.00   1.01343010   0.20081003
729.00   1.00553284   0.20163601
730.00   0.99762495   0.20246424
731.00   0.98970643   0.20329473
732.00   0.98177728   0.20412747
733.00   0.97383751   0.20496247
734.00   0.96588710   0.20579974
735.00   0.95792607   0.20663927
736.00   0.94995441   0.20748107
737.00   0.94197213   0.20832514
738.00   0.93397922   0.20917149
739.00   0.92597569   0.21002011
740.00   0.91796154   0.21087102
741.00   0.90993677   0.21172421
742.00   0.90190138   0.21257968
743.00   0.89385536   0.21343745
744.00   0.88579873   0.21429751
745.00   0.87773148   0.21515986
746.00   0.86965361   0.21602451
747.00   0.86156513   0.21689147
748.00   0.85346603   0.21776073
749.00   0.84535632   0.21863229
750.00   0.83723599   0.21950617
751.00   0.82910505   0.22038236
752.00   0.82096350   0.22126087
753.00   0.81281134   0.22214169
754.00   0.80464856   0.22302484
755.00   0.79647518   0.22391032
756.00   0.78829119   0.22479812
757.00   0.78009659   0.22568826
758.00   0.77189139   0.22658073
759.00   0.76367558   0.22747553
760.00   0.75544917   0.22837268
761.00   0.74721215   0.22927217
762.00   0.73896453   0.23017401
763.00   0.73070630   0.23107819
764.00   0.72243748   0.23198473
765.00   0.71415805   0.23289362
766.00   0.70586803   0.23380487
767.00   0.69756740   0.23471849
768.00   0.68925618   0.23563446
769.00   0.68093437   0.23655281
770.00   0.67260195   0.23747352
771.00   0.66425894   0.23839661
772.00   0.65590534   0.23932207
773.00   0.64754115   0.24024991
774.00   0.63916636   0.24118014
775.00   0.63078098   0.24211275
776.00   0.62238501   0.24304774
777.00   0.61397845   0.24398513
778.00   0.60556130   0.24492491
779.00   0.59713357   0.24586709
780.00   0.58869525   0.24681167
781.00   0.58024634   0.24775865
782.00   0.57178684   0.24870804
783.00   0.56331677   0.24965983
784.00   0.55483611   0.25061404
785.00   0.54634486   0.25157066
786.00   0.53784304   0.25252970
787.00   0.52933063   0.25349116
788.00   0.52080765   0.25445504
789.00   0.51227409   0.25542135
790.00   0.50372995   0.25639009
791.00   0.49517523   0.25736127
792.00   0.48660994   0.25833487
793.00   0.47803407   0.25931092
794.00   0.46944763   0.26028940
795.00   0.46085061   0.26127034
796.00   0.45224303   0.26225371
797.00   0.44362487   0.26323954
798.00   0.43499614   0.26422782
799.00   0.42635684   0.26521856
800.00   0.41770697   0.26621176
801.00   0.40904654   0.26720742
802.00   0.40037554   0.26820554
803.00   0.39169397   0.26920613
804.00   0.38300184   0.27020919
805.00   0.37429915   0.27121473
806.00   0.36558589   0.27222274
807.00   0.35686207   0.27323324
808.00   0.34812769   0.27424621
809.00   0.33938275   0.27526167
810.00   0.33062725   0.27627962
811.00   0.32186120   0.27730007
812.00   0.31308458   0.27832300
813.00   0.30429741   0.27934843
814.00   0.29549968   0.28037637
815.00   0.28669140   0.28140681
816.00   0.27787257   0.28243975
817.00   0.26904318   0.28347520
818.00   0.26020325   0.28451317
819.00   0.25135276   0.28555365
820.00   0.24249172   0.28659665
821.00   0.23362013   0.28764217
822.00   0.22473800   0.28869021
823.00   0.21584532   0.28974078
824.00   0.20694209   0.29079388
825.00   0.19802832   0.29184951
826.00   0.18910400   0.29290768
827.00   0.18016915   0.29396839
828.00   0.17122375   0.29503164
829.00   0.16226781   0.29609744
830.00   0.15330132   0.29716578
831.00   0.14432430   0.29823667
832.00   0.13533675   0.29931012
833.00   0.12633865   0.30038612
834.00   0.11733002   0.30146468
835.00   0.10831085   0.30254580
836.00   0.09928115   0.30362949
837.00   0.09024092   0.30471575
838.00   0.08119015   0.30580458
839.00   0.07212885   0.30689598
840.00   0.06305702   0.30798996
841.00   0.05397467   0.30908652
842.00   0.04488178   0.31018567
843.00   0.03577837   0.31128740
844.00   0.02666443   0.31239171
845.00   0.01753996   0.31349862
846.00   0.00840497   0.31460813
847.00  -0.00074054   0.31572023
848.00  -0.00989657   0.31683493
849.00  -0.01906313   0.31795224
850.00  -0.02824021   0.31907215
851.00  -0.03742781   0.32019467
852.00  -0.04662592   0.32131980
853.00  -0.05583455   0.32244755
854.00  -0.06505370   0.32357792
855.00  -0.07428337   0.32471091
856.00  -0.08352355   0.32584652
857.00  -0.09277424   0.32698476
858.00  -0.10203545   0.32812563
859.00  -0.11130717   0.32926913
860.00  -0.12058939   0.33041527
861.00  -0.12988213   0.33156404
862.00  -0.13918538   0.33271546
863.00  -0.14849913   0.33386953
864.00  -0.15782339   0.33502624
865.00  -0.16715816   0.33618560
866.00  -0.17650343   0.33734761
867.00  -0.18585920   0.33851228
868.00  -0.19522548   0.33967961
869.00  -0.20460226   0.34084960
870.00  -0.21398954   0.34202226
871.00  -0.22338732   0.34319758
872.00  -0.23279560   0.34437558
873.00  -0.24221437   0.34555625
874.00  -0.25164364   0.34673959
875.00  -0.26108341   0.34792562
876.00  -0.27053367   0.34911433
877.00  -0.27999443   0.35030572
878.00  -0.28946567   0.35149980
879.00  -0.29894741   0.35269658
880.00  -0.30843964   0.35389604
881.00  -0.31794236   0.35509821
882.00  -0.32745557   0.35630308
883.00  -0.33697926   0.35751064
884.00  -0.34651345   0.35872092
885.00  -0.35605811   0.35993390
886.00  -0.36561326   0.36114960
887.00  -0.37517890   0.36236801
888.00  -0.38475501   0.36358913
889.00  -0.39434161   0.36481298
890.00  -0.40393869   0.36603955
891.00  -0.41354625   0.36726885
892.00  -0.42316428   0.36850088
893.00  -0.43279280   0.36973564
894.00  -0.44243178   0.37097313
895.00  -0.45208125   0.37221337
896.00  -0.46174119   0.37345634
897.00  -0.47141160   0.37470206
898.00  -0.48109248   0.37595052
899.00  -0.49078383   0.37720174
900.00  -0.50048566   0.37845570
901.00  -0.51019795   0.37971242
902.00  -0.51992071   0.38097191
903.00  -0.52965394   0.38223415
904.00  -0.53939763   0.38349915
905.00  -0.54915179   0.38476693
906.00  -0.55891641   0.38603747
907.00  -0.56869149   0.38731079
908.00  -0.57847704   0.38858688
909.00  -0.58827304   0.38986575
910.00  -0.59807951   0.39114741
911.00  -0.60789643   0.39243184
912.00  -0.61772381   0.39371907
913.00  -0.62756165   0.39500908
914.00  -0.63740994   0.39630189
915.00  -0.64726869   0.39759750
916.00  -0.65713789   0.39889590
917.00  -0.66701754   0.40019711
918.00  -0.67690765   0.40150112
919.00  -0.68680820   0.40280794
920.00  -0.69671920   0.40411757
921.00  -0.70664065   0.40543002
922.00  -0.71657255   0.40674528
923.00  -0.72651489   0.40806336
924.00  -0.73646768   0.40938426
925.00  -0.74643091   0.41070799
926.00  -0.75640458   0.41203454
927.00  -0.76638869   0.41336393
928.00  -0.77638325   0.41469615
929.00  -0.78638824   0.41603121
930.00  -0.79640368   0.41736911
931.00  -0.80642954   0.41870985
932.00  -0.81646585   0.42005343
933.00  -0.82651259   0.42139987
934.00  -0.83656977   0.42274916
935.00  -0.84663737   0.42410130
936.00  -0.85671541   0.42545629
937.00  -0.86680388   0.42681415
938.00  -0.87690278   0.42817487
939.00  -0.88701211   0.42953846
940.00  -0.89713187   0.43090491
941.00  -0.90726205   0.43227424
942.00  -0.91740265   0.43364644
943.00  -0.92755369   0.43502152
944.00  -0.93771514   0.43639948
945.00  -0.94788702   0.43778032
946.00  -0.95806932   0.43916405
947.00  -0.96826203   0.44055066
948.00  -0.97846517   0.44194017
949.00  -0.98867872   0.44333257
950.00  -0.99890269   0.44472788
951.00  -1.00913708   0.44612608
952.00  -1.01938188   0.44752718
953.00  -1.02963709   0.44893119
954.00  -1.03990272   0.45033811
955.00  -1.05017876   0.45174795
956.00  -1.06046520   0.45316069
957.00  -1.07076206   0.45457636
958.00  -1.08106932   0.45599495
959.00  -1.09138700   0.45741646
960.00  -1.10171507   0.45884089
961.00  -1.11205355   0.46026826
962.00  -1.12240244   0.46169855
963.00  -1.13276172   0.46313179
964.00  -1.14313141   0.46456796
965.00  -1.15351150   0.46600707
966.00  -1.16390199   0.46744913
967.00  -1.17430287   0.46889413
968.00  -1.18471415   0.47034208
969.00  -1.19513583   0.47179298
970.00  -1.20556790   0.47324684
971.00  -1.21601037   0.47470366
972.00  -1.22646322   0.47616344
973.00  -1.23692647   0.47762618
974.00  -1.24740011   0.47909189
975.00  -1.25788414   0.48056057
976.00  -1.26837855   0.48203222
977.00  -1.27888336   0.48350685
978.00  -1.28939854   0.48498445
979.00  -1.29992412   0.48646504
980.00  -1.31046007   0.48794861
981.00  -1.32100641   0.48943516
982.00  -1.33156313   0.49092471
983.00  -1.34213023   0.49241725
984.00  -1.35270770   0.49391278
985.00  -1.36329556   0.49541132
986.00  -1.37389379   0.49691285
987.00  -1.38450240   0.49841739
988.00  -1.39512138   0.49992493
989.00  -1.40575074   0.50143549
990.00  -1.41639046   0.50294906
991.00  -1.42704056   0.50446564
992.00  -1.43770103   0.50598524
993.00  -1.44837187   0.50750787
994.00  -1.45905307   0.50903351
995.00  -1.46974464   0.51056219
996.00  -1.48044657   0.51209389
997.00  -1.49115887   0.51362863
998.00  -1.50188154   0.51516640
999.00  -1.51261456   0.51670721
1000.00  -1.52335795   0.51825106
1001.00  -1.53411169   0.51979796
1002.00  -1.54487579   0.52134790
1003.00  -1.55565025   0.52290090
1004.00  -1.56643507   0.52445694
1005.00  -1.57723024   0.52601605
1006.00  -1.58803577   0.52757821
1007.00  -1.59885164   0.52914343
1008.00  -1.60967787   0.53071171
1009.00  -1.62051445   0.53228307
1010.00  -1.63136138   0.53385749
1011.00  -1.64221866   0.53543499
1012.00  -1.65308628   0.53701556
1013.00  -1.66396425   0.53859921
1014.00  -1.67485256   0.54018594
1015.00  -1.68575122   0.54177575
1016.00  -1.69666022   0.54336866
1017.00  -1.70757956   0.54496465
1018.00  -1.71850924   0.54656373
1019.00  -1.72944926   0.54816591
1020.00  -1.74039961   0.54977119
1021.00  -1.75136031   0.55137957
1022.00  -1.76233133   0.55299106
1023.00  -1.77331270   0.55460565
1024.00  -1.78430439   0.55622335
1025.00  -1.79530642   0.55784416
1026.00  -1.80631877   0.55946809
1027.00  -1.81734146   0.56109514
1028.00  -1.82837448   0.56272531
1029.00  -1.83941782   0.56435860
1030.00  -1.85047148   0.56599502
1031.00  -1.86153548   0.56763457
1032.00  -1.87260979   0.56927726
1033.00  -1.88369443   0.57092307
1034.00  -1.89478939   0.57257203
1035.00  -1.90589467   0.57422413
1036.00  -1.91701027   0.57587937
1037.00  -1.92813618   0.57753776
1038.00  -1.93927241   0.57919929
1039.00  -1.95041896   0.58086398
1040.00  -1.96157582   0.58253183
1041.00  -1.97274300   0.58420283
1042.00  -1.98392048   0.58587700
1043.00  -1.99510828   0.58755433
1044.00  -2.00630638   0.58923482
1045.00  -2.01751480   0.59091849
1046.00  -2.02873352   0.59260532
1047.00  -2.03996254   0.59429534
1048.00  -2.05120187   0.59598853
1049.00  -2.06245151   0.59768490
1050.00  -2.07371144   0.59938445
1051.00  -2.08498168   0.60108719
1052.00  -2.09626221   0.60279312
1053.00  -2.10755305   0.60450225
1054.00  -2.11885418   0.60621456
1055.00  -2.13016561   0.60793008
1056.00  -2.14148733   0.60964880
1057.00  -2.15281935   0.61137072
1058.00  -2.16416166   0.61309584
1059.00  -2.17551426   0.61482418
1060.00  -2.18687715   0.61655573
1061.00  -2.19825033   0.61829049
1062.00  -2.20963380   0.62002847
1063.00  -2.22102755   0.62176967
1064.00  -2.23243159   0.62351409
1065.00  -2.24384592   0.62526174
1066.00  -2.25527052   0.62701262
1067.00  -2.26670541   0.62876673
1068.00  -2.27815058   0.63052408
1069.00  -2.28960603   0.63228466
1070.00  -2.30107175   0.63404848
1071.00  -2.31254775   0.63581555
1072.00  -2.32403403   0.63758586
1073.00  -2.33553058   0.63935942
1074.00  -2.34703741   0.64113623
1075.00  -2.35855450   0.64291630
1076.00  -2.37008187   0.64469962
1077.00  -2.38161951   0.64648621
1078.00  -2.39316741   0.64827605
1079.00  -2.40472559   0.65006917
1080.00  -2.41629402   0.65186555
1081.00  -2.42787273   0.65366520
1082.00  -2.43946169   0.65546812
1083.00  -2.45106092   0.65727433
1084.00  -2.46267041   0.65908381
1085.00  -2.47429016   0.66089657
1086.00  -2.48592016   0.66271262
1087.00  -2.49756043   0.66453196
1088.00  -2.50921095   0.66635459
1089.00  -2.52087172   0.66818052
1090.00  -2.53254275   0.67000974
1091.00  -2.54422403   0.67184225
1092.00  -2.55591556   0.67367808
1093.00  -2.56761734   0.67551720
1094.00  -2.57932937   0.67735964
1095.00  -2.59105165   0.67920538
1096.00  -2.60278417   0.68105444
1097.00  -2.61452694   0.68290681
1098.00  -2.62627995   0.68476251
1099.00  -2.63804320   0.68662152
1100.00  -2.64981669   0.68848386
1101.00  -2.66160043   0.69034953
1102.00  -2.67339440   0.69221853
1103.00  -2.68519861   0.69409086
1104.00  -2.69701305   0.69596652
1105.00  -2.70883773   0.69784553
1106.00  -2.72067265   0.69972788
1107.00  -2.73251779   0.70161357
1108.00  -2.74437317   0.70350261
1109.00  -2.75623878   0.70539499
1110.00  -2.76811461   0.70729073
1111.00  -2.78000067   0.70918983
1112.00  -2.79189696   0.71109228
1113.00  -2.80380347   0.71299810
1114.00  -2.81572021   0.71490728
1115.00  -2.82764717   0.71681982
1116.00  -2.83958435   0.71873574
1117.00  -2.85153175   0.72065503
1118.00  -2.86348936   0.72257769
1119.00  -2.87545720   0.72450373
1120.00  -2.88743525   0.72643315
1121.00  -2.89942351   0.72836596
1122.00  -2.91142199   0.73030215
1123.00  -2.92343068   0.73224173
1124.00  -2.93544958   0.73418470
1125.00  -2.94747869   0.73613107
1126.00  -2.95951801   0.73808083
1127.00  -2.97156754   0.74003399
1128.00  -2.98362727   0.74199056
1129.00  -2.99569721   0.74395053
1130.00  -3.00777734   0.74591391
1131.00  -3.01986768   0.74788071
1132.00  -3.03196823   0.74985091
1133.00  -3.04407897   0.75182454
1134.00  -3.05619990   0.75380158
1135.00  -3.06833104   0.75578204
1136.00  -3.08047237   0.75776593
1137.00  -3.09262390   0.75975325
1138.00  -3.10478561   0.76174400
1139.00  -3.11695752   0.76373819
1140.00  -3.12913962   0.76573581
1141.00  -3.14133191   0.76773686
1142.00  -3.15353439   0.76974136
1143.00  -3.16574705   0.77174931
1144.00  -3.17796990   0.77376070
1145.00  -3.19020293   0.77577555
1146.00  -3.20244614   0.77779384
1147.00  -3.21469954   0.77981559
1148.00  -3.22696311   0.78184081
1149.00  -3.23923687   0.78386948
1150.00  -3.25152080   0.78590161
1151.00  -3.26381491   0.78793722
1152.00  -3.27611919   0.78997629
1153.00  -3.28843364   0.79201883
1154.00  -3.30075827   0.79406485
1155.00  -3.31309307   0.79611435
1156.00  -3.32543804   0.79816733
1157.00  -3.33779318   0.80022380
1158.00  -3.35015848   0.80228374
1159.00  -3.36253395   0.80434718
1160.00  -3.37491958   0.80641411
1161.00  -3.38731538   0.80848454
1162.00  -3.39972134   0.81055846
1163.00  -3.41213746   0.81263588
1164.00  -3.42456373   0.81471681
1165.00  -3.43700017   0.81680124
1166.00  -3.44944676   0.81888918
1167.00  -3.46190351   0.82098063
1168.00  -3.47437041   0.82307560
1169.00  -3.48684746   0.82517408
1170.00  -3.49933467   0.82727608
1171.00  -3.51183202   0.82938160
1172.00  -3.52433952   0.83149065
1173.00  -3.53685717   0.83360323
1174.00  -3.54938497   0.83571933
1175.00  -3.56192291   0.83783897
1176.00  -3.57447100   0.83996215
1177.00  -3.58702922   0.84208887
1178.00  -3.59959759   0.84421912
1179.00  -3.61217610   0.84635292
1180.00  -3.62476474   0.84849027
1181.00  -3.63736352   0.85063117
1182.00  -3.64997244   0.85277562
1183.00  -3.66259149   0.85492363
1184.00  -3.67522067   0.85707519
1185.00  -3.68785998   0.85923032
1186.00  -3.70050943   0.86138901
1187.00  -3.71316900   0.86355126
1188.00  -3.72583870   0.86571709
1189.00  -3.73851853   0.86788648
1190.00  -3.75120848   0.87005945
1191.00  -3.76390855   0.87223600
1192.00  -3.77661875   0.87441613
1193.00  -3.78933906   0.87659984
1194.00  -3.80206950   0.87878714
1195.00  -3.81481005   0.88097803
1196.00  -3.82756072   0.88317250
1197.00  -3.84032151   0.88537058
1198.00  -3.85309241   0.88757224
1199.00  -3.86587342   0.88977751
1200.00  -3.87866454   0.89198638
1201.00  -3.89146578   0.89419885
1202.00  -3.90427712   0.89641494
1203.00  -3.91709857   0.89863463
1204.00  -3.92993012   0.90085793
1205.00  -3.94277178   0.90308485
1206.00  -3.95562355   0.90531539
1207.00  -3.96848541   0.90754955
1208.00  -3.98135737   0.90978734
1209.00  -3.99423944   0.91202875
1210.00  -4.00713160   0.91427379
1211.00  -4.02003386   0.91652247
1212.00  -4.03294621   0.91877478
1213.00  -4.04586866   0.92103072
1214.00  -4.05880120   0.92329031
1215.00  -4.07174383   0.92555354
1216.00  -4.08469655   0.92782042
1217.00  -4.09765935   0.93009094
1218.00  -4.11063225   0.93236512
1219.00  -4.12361523   0.93464295
1220.00  -4.13660829   0.93692444
1221.00  -4.14961144   0.93920958
1222.00  -4.16262467   0.94149839
1223.00  -4.17564797   0.94379087
1224.00  -4.18868136   0.94608701
1225.00  -4.20172482   0.94838682
1226.00  -4.21477836   0.95069031
1227.00  -4.22784198   0.95299747
1228.00  -4.24091567   0.95530831
1229.00  -4.25399943   0.95762283
1230.00  -4.26709325   0.95994104
1231.00  -4.28019715   0.96226293
1232.00  -4.29331112   0.96458852
1233.00  -4.30643515   0.96691779
1234.00  -4.31956925   0.96925076
1235.00  -4.33271341   0.97158743
1236.00  -4.34586763   0.97392780
1237.00  -4.35903192   0.97627187
1238.00  -4.37220626   0.97861965
1239.00  -4.38539066   0.98097114
1240.00  -4.39858512   0.98332634
1241.00  -4.41178963   0.98568525
1242.00  -4.42500420   0.98804788
1243.00  -4.43822882   0.99041423
1244.00  -4.45146349   0.99278430
1245.00  -4.46470821   0.99515810
1246.00  -4.47796297   0.99753562
1247.00  -4.49122779   0.99991688
1248.00  -4.50450265   1.00230186
1249.00  -4.51778755   1.00469059
1250.00  -4.53108250   1.00708305
1251.00  -4.54438749   1.00947925
1252.00  -4.55770252   1.01187920
1253.00  -4.57102758   1.01428289
1254.00  -4.58436269   1.01669034
1255.00  -4.59770782   1.01910153
1256.00  -4.61106300   1.02151648
1257.00  -4.62442820   1.02393519
1258.00  -4.63780344   1.02635766
1259.00  -4.65118871   1.02878389
1260.00  -4.66458401   1.03121389
1261.00  -4.67798933   1.03364765
1262.00  -4.69140468   1.03608519
1263.00  -4.70483005   1.03852650
1264.00  -4.71826545   1.04097158
1265.00  -4.73171087   1.04342045
1266.00  -4.74516631   1.04587310
1267.00  -4.75863177   1.04832953
1268.00  -4.77210724   1.05078975
1269.00  -4.78559273   1.05325376
1270.00  -4.79908824   1.05572156
1271.00  -4.81259376   1.05819316
1272.00  -4.82610929   1.06066855
1273.00  -4.83963483   1.06314775
1274.00  -4.85317038   1.06563075
1275.00  -4.86671594   1.06811756
1276.00  -4.88027150   1.07060817
1277.00  -4.89383707   1.07310260
1278.00  -4.90741264   1.07560084
1279.00  -4.92099821   1.07810290
1280.00  -4.93459379   1.08060877
1281.00  -4.94819936   1.08311847
1282.00  -4.96181493   1.08563200
1283.00  -4.97544049   1.08814935
1284.00  -4.98907605   1.09067053
1285.00  -5.00272161   1.09319555
1286.00  -5.01637715   1.09572440
1287.00  -5.03004269   1.09825709
1288.00  -5.04371822   1.10079362
1289.00  -5.05740373   1.10333400
1290.00  -5.07109923   1.10587822
1291.00  -5.08480471   1.10842629
1292.00  -5.09852018   1.11097821
1293.00  -5.11224562   1.11353399
1294.00  -5.12598105   1.11609363
1295.00  -5.13972646   1.11865712
1296.00  -5.15348185   1.12122448
1297.00  -5.16724721   1.12379570
1298.00  -5.18102254   1.12637079
1299.00  -5.19480785   1.12894975
1300.00  -5.20860313   1.13153259
1301.00  -5.22240838   1.13411930
1302.00  -5.23622360   1.13670989
1303.00  -5.25004879   1.13930436
1304.00  -5.26388394   1.14190271
1305.00  -5.27772906   1.14450496
1306.00  -5.29158414   1.14711109
1307.00  -5.30544918   1.14972111
1308.00  -5.31932418   1.15233503
1309.00  -5.33320914   1.15495285
1310.00  -5.34710406   1.15757456
1311.00  -5.36100893   1.16020018
1312.00  -5.37492376   1.16282970
1313.00  -5.38884854   1.16546314
1314.00  -5.40278328   1.16810048
1315.00  -5.41672796   1.17074174
1316.00  -5.43068259   1.17338691
1317.00  -5.44464717   1.17603600
1318.00  -5.45862169   1.17868901
1319.00  -5.47260616   1.18134595
1320.00  -5.48660057   1.18400682
1321.00  -5.50060492   1.18667161
1322.00  -5.51461921   1.18934034
1323.00  -5.52864344   1.19201300
1324.00  -5.54267760   1.19468959
1325.00  -5.55672171   1.19737013
1326.00  -5.57077574   1.20005461
1327.00  -5.58483971   1.20274304
1328.00  -5.59891361   1.20543541
1329.00  -5.61299744   1.20813174
1330.00  -5.62709119   1.21083202
1331.00  -5.64119487   1.21353625
1332.00  -5.65530848   1.21624445
1333.00  -5.66943201   1.21895660
1334.00  -5.68356547   1.22167272
1335.00  -5.69770884   1.22439281
1336.00  -5.71186213   1.22711686
1337.00  -5.72602534   1.22984489
1338.00  -5.74019847   1.23257689
1339.00  -5.75438151   1.23531287
1340.00  -5.76857447   1.23805283
1341.00  -5.78277733   1.24079678
1342.00  -5.79699011   1.24354470
1343.00  -5.81121279   1.24629662
1344.00  -5.82544539   1.24905253
1345.00  -5.83968789   1.25181243
1346.00  -5.85394029   1.25457632
1347.00  -5.86820259   1.25734421
1348.00  -5.88247480   1.26011611
1349.00  -5.89675691   1.26289201
1350.00  -5.91104891   1.26567191
1351.00  -5.92535082   1.26845583
1352.00  -5.93966261   1.27124376
1353.00  -5.95398431   1.27403570
1354.00  -5.96831589   1.27683166
1355.00  -5.98265737   1.27963163
1356.00  -5.99700873   1.28243563
1357.00  -6.01136998   1.28524366
1358.00  -6.02574112   1.28805571
1359.00  -6.04012214   1.29087179
1360.00  -6.05451305   1.29369191
1361.00  -6.06891384   1.29651606
1362.00  -6.08332451   1.29934425
1363.00  -6.09774506   1.30217648
1364.00  -6.11217548   1.30501276
1365.00  -6.12661579   1.30785308
1366.00  -6.14106596   1.31069745
1367.00  -6.15552601   1.31354587
1368.00  -6.16999593   1.31639834
1369.00  -6.18447572   1.31925487
1370.00  -6.19896538   1.32211546
1371.00  -6.21346491   1.32498011
1372.00  -6.22797430   1.32784883
1373.00  -6.24249355   1.33072162
1374.00  -6.25702267   1.33359847
1375.00  -6.27156165   1.33647940
1376.00  -6.28611049   1.33936440
1377.00  -6.30066918   1.34225348
1378.00  -6.31523773   1.34514664
1379.00  -6.32981614   1.34804388
1380.00  -6.34440440   1.35094521
1381.00  -6.35900251   1.35385062
1382.00  -6.37361047   1.35676013
1383.00  -6.38822828   1.35967373
1384.00  -6.40285594   1.36259142
1385.00  -6.41749345   1.36551322
1386.00  -6.43214079   1.36843912
1387.00  -6.44679798   1.37136912
1388.00  -6.46146502   1.37430322
1389.00  -6.47614189   1.37724144
1390.00  -6.49082860   1.38018377
1391.00  -6.50552514   1.38313021
1392.00  -6.52023152   1.38608077
1393.00  -6.53494774   1.38903545
1394.00  -6.54967378   1.39199425
1395.00  -6.56440966   1.39495717
1396.00  -6.57915536   1.39792423
1397.00  -6.59391090   1.40089541
1398.00  -6.60867625   1.40387073
1399.00  -6.62345144   1.40685018
1400.00  -6.63823644   1.40983377
1401.00  -6.65303127   1.41282150
1402.00  -6.66783592   1.41581337
1403.00  -6.68265038   1.41880939
1404.00  -6.69747466   1.42180955
1405.00  -6.71230876   1.42481387
1406.00  -6.72715267   1.42782234
1407.00  -6.74200639   1.43083497
1408.00  -6.75686992   1.43385176
1409.00  -6.77174326   1.43687271
1410.00  -6.78662641   1.43989782
1411.00  -6.80151936   1.44292710
1412.00  -6.81642212   1.44596054
1413.00  -6.83133468   1.44899816
1414.00  -6.84625705   1.45203996
1415.00  -6.86118921   1.45508593
1416.00  -6.87613117   1.45813608
1417.00  -6.89108293   1.46119041
1418.00  -6.90604448   1.46424893
1419.00  -6.92101582   1.46731164
1420.00  -6.93599696   1.47037853
1421.00  -6.95098789   1.47344962
1422.00  -6.96598860   1.47652490
1423.00  -6.98099910   1.47960438
1424.00  -6.99601939   1.48268806
1425.00  -7.01104947   1.48577595
1426.00  -7.02608932   1.48886803
1427.00  -7.04113896   1.49196433
1428.00  -7.05619837   1.49506484
1429.00  -7.07126757   1.49816956
1430.00  -7.08634654   1.50127850
1431.00  -7.10143528   1.50439166
1432.00  -7.11653380   1.50750903
1433.00  -7.13164209   1.51063063
1434.00  -7.14676015   1.51375646
1435.00  -7.16188798   1.51688652
1436.00  -7.17702557   1.52002080
1437.00  -7.19217293   1.52315933
1438.00  -7.20733006   1.52630208
1439.00  -7.22249694   1.52944908
1440.00  -7.23767359   1.53260032
1441.00  -7.25285999   1.53575580
1442.00  -7.26805616   1.53891553
1443.00  -7.28326208   1.54207951
1444.00  -7.29847775   1.54524775
1445.00  -7.31370318   1.54842023
1446.00  -7.32893835   1.55159698
1447.00  -7.34418328   1.55477798
1448.00  -7.35943796   1.55796325
1449.00  -7.37470238   1.56115278
1450.00  -7.38997654   1.56434658
1451.00  -7.40526045   1.56754464
1452.00  -7.42055411   1.57074699
1453.00  -7.43585750   1.57395360
1454.00  -7.45117063   1.57716450
1455.00  -7.46649349   1.58037967
1456.00  -7.48182610   1.58359913
1457.00  -7.49716843   1.58682287
1458.00  -7.51252050   1.59005091
1459.00  -7.52788230   1.59328323
1460.00  -7.54325383   1.59651984
1461.00  -7.55863508   1.59976076
1462.00  -7.57402607   1.60300597
1463.00  -7.58942677   1.60625548
1464.00  -7.60483720   1.60950929
1465.00  -7.62025735   1.61276741
1466.00  -7.63568722   1.61602984
1467.00  -7.65112680   1.61929658
1468.00  -7.66657611   1.62256764
1469.00  -7.68203512   1.62584301
1470.00  -7.69750386   1.62912270
1471.00  -7.71298230   1.63240671
1472.00  -7.72847045   1.63569504
1473.00  -7.74396831   1.63898770
1474.00  -7.75947588   1.64228470
1475.00  -7.77499315   1.64558602
1476.00  -7.79052013   1.64889167
1477.00  -7.80605680   1.65220167
1478.00  -7.82160318   1.65551600
1479.00  -7.83715926   1.65883468
1480.00  -7.85272503   1.66215770
1481.00  -7.86830050   1.66548506
1482.00  -7.88388566   1.66881678
1483.00  -7.89948052   1.67215285
1484.00  -7.91508506   1.67549327
1485.00  -7.93069930   1.67883805
1486.00  -7.94632322   1.68218719
1487.00  -7.96195683   1.68554069
1488.00  -7.97760012   1.68889856
1489.00  -7.99325310   1.69226079
1490.00  -8.00891575   1.69562740
1491.00  -8.02458809   1.69899837
1492.00  -8.04027010   1.70237373
1493.00  -8.05596179   1.70575346
1494.00  -8.07166315   1.70913757
1495.00  -8.08737419   1.71252606
1496.00  -8.10309490   1.71591894
1497.00  -8.11882528   1.71931620
1498.00  -8.13456532   1.72271786
1499.00  -8.15031503   1.72612391
1500.00  -8.16607441   1.72953435
1501.00  -8.18184345   1.73294919
1502.00  -8.19762215   1.73636844
1503.00  -8.21341051   1.73979208
1504.00  -8.22920853   1.74322013
1505.00  -8.24501621   1.74665259
1506.00  -8.26083354   1.75008946
1507.00  -8.27666052   1.75353074
1508.00  -8.29249716   1.75697644
1509.00  -8.30834345   1.76042656
1510.00  -8.32419938   1.76388110
1511.00  -8.34006496   1.76734006
1512.00  -8.35594019   1.77080344
1513.00  -8.37182506   1.77427126
1514.00  -8.38771957   1.77774350
1515.00  -8.40362373   1.78122018
1516.00  -8.41953752   1.78470130
1517.00  -8.43546095   1.78818685
1518.00  -8.45139401   1.79167685
1519.00  -8.46733671   1.79517128
1520.00  -8.48328904   1.79867017
1521.00  -8.49925100   1.80217350
1522.00  -8.51522259   1.80568128
1523.00  -8.53120380   1.80919352
1524.00  -8.54719465   1.81271021
1525.00  -8.56319511   1.81623137
1526.00  -8.57920520   1.81975698
1527.00  -8.59522491   1.82328705
1528.00  -8.61125424   1.82682160
1529.00  -8.62729318   1.83036061
1530.00  -8.64334174   1.83390409
1531.00  -8.65939992   1.83745205
1532.00  -8.67546770   1.84100448
1533.00  -8.69154510   1.84456139
1534.00  -8.70763211   1.84812278
1535.00  -8.72372872   1.85168866
1536.00  -8.73983494   1.85525902
1537.00  -8.75595077   1.85883387
1538.00  -8.77207620   1.86241322
1539.00  -8.78821122   1.86599705
1540.00  -8.80435585   1.86958539
1541.00  -8.82051007   1.87317822
1542.00  -8.83667389   1.87677555
1543.00  -8.85284731   1.88037739
1544.00  -8.86903032   1.88398373
1545.00  -8.88522291   1.88759458
1546.00  -8.90142510   1.89120994
1547.00  -8.91763687   1.89482982
1548.00  -8.93385823   1.89845422
1549.00  -8.95008918   1.90208313
1550.00  -8.96632971   1.90571656
1551.00  -8.98257981   1.90935452
1552.00  -8.99883950   1.91299700
1553.00  -9.01510876   1.91664402
1554.00  -9.03138760   1.92029556
1555.00  -9.04767602   1.92395164
1556.00  -9.06397401   1.92761225
1557.00  -9.08028156   1.93127741
1558.00  -9.09659869   1.93494710
1559.00  -9.11292539   1.93862134
1560.00  -9.12926165   1.94230012
1561.00  -9.14560747   1.94598346
1562.00  -9.16196286   1.94967134
1563.00  -9.17832780   1.95336378
1564.00  -9.19470231   1.95706077
1565.00  -9.21108638   1.96076233
1566.00  -9.22748000   1.96446844
1567.00  -9.24388317   1.96817912
1568.00  -9.26029590   1.97189437
1569.00  -9.27671817   1.97561418
1570.00  -9.29315000   1.97933856
1571.00  -9.30959137   1.98306752
1572.00  -9.32604229   1.98680106
1573.00  -9.34250276   1.99053917
1574.00  -9.35897276   1.99428187
1575.00  -9.37545231   1.99802914
1576.00  -9.39194139   2.00178101
1577.00  -9.40844001   2.00553746
1578.00  -9.42494817   2.00929851
1579.00  -9.44146586   2.01306414
1580.00  -9.45799309   2.01683438
1581.00  -9.47452984   2.02060921
1582.00  -9.49107613   2.02438864
1583.00  -9.50763194   2.02817268
1584.00  -9.52419727   2.03196132
1585.00  -9.54077213   2.03575457
1586.00  -9.55735651   2.03955243
1587.00  -9.57395041   2.04335491
1588.00  -9.59055383   2.04716200
1589.00  -9.60716677   2.05097371
1590.00  -9.62378922   2.05479004
1591.00  -9.64042119   2.05861099
1592.00  -9.65706266   2.06243657
1593.00  -9.67371365   2.06626678
1594.00  -9.69037415   2.07010161
1595.00  -9.70704415   2.07394109
1596.00  -9.72372366   2.07778519
1597.00  -9.74041267   2.08163394
1598.00  -9.75711118   2.08548732
1599.00  -9.77381919   2.08934535
1600.00  -9.79053671   2.09320802
1601.00  -9.80726371   2.09707534
1602.00  -9.82400021   2.10094731
1603.00  -9.84074621   2.10482394
1604.00  -9.85750170   2.10870522
1605.00  -9.87426667   2.11259116
1606.00  -9.89104113   2.11648175
1607.00  -9.90782508   2.12037701
1608.00  -9.92461852   2.12427694
1609.00  -9.94142144   2.12818153
1610.00  -9.95823383   2.13209079
1611.00  -9.97505571   2.13600473
1612.00  -9.99188707   2.13992334
1613.00 -10.00872790   2.14384663
1614.00 -10.02557820   2.14777459
1615.00 -10.04243798   2.15170724
1616.00 -10.05930723   2.15564458
1617.00 -10.07618595   2.15958660
1618.00 -10.09307413   2.16353331
1619.00 -10.10997178   2.16748471
1620.00 -10.12687889   2.17144081
1621.00 -10.14379547   2.17540160
1622.00 -10.16072151   2.17936710
1623.00 -10.17765700   2.18333729
1624.00 -10.19460195   2.18731219
1625.00 -10.21155636   2.19129180
1626.00 -10.22852022   2.19527612
1627.00 -10.24549354   2.19926514
1628.00 -10.26247630   2.20325889
1629.00 -10.27946851   2.20725734
1630.00 -10.29647017   2.21126052
1631.00 -10.31348127   2.21526842
1632.00 -10.33050181   2.21928104
1633.00 -10.34753180   2.22329839
1634.00 -10.36457123   2.22732047
1635.00 -10.38162009   2.23134728
1636.00 -10.39867839   2.23537882
1637.00 -10.41574613   2.23941509
1638.00 -10.43282329   2.24345611
1639.00 -10.44990989   2.24750187
1640.00 -10.46700592   2.25155237
1641.00 -10.48411137   2.25560761
1642.00 -10.50122626   2.25966761
1643.00 -10.51835056   2.26373235
1644.00 -10.53548429   2.26780185
1645.00 -10.55262743   2.27187610
1646.00 -10.56978000   2.27595511
1647.00 -10.58694198   2.28003889
1648.00 -10.60411338   2.28412742
1649.00 -10.62129419   2.28822072
1650.00 -10.63848442   2.29231879
1651.00 -10.65568405   2.29642162
1652.00 -10.67289309   2.30052923
1653.00 -10.69011154   2.30464161
1654.00 -10.70733940   2.30875877
1655.00 -10.72457665   2.31288072
1656.00 -10.74182331   2.31700744
1657.00 -10.75907937   2.32113894
1658.00 -10.77634482   2.32527524
1659.00 -10.79361967   2.32941632
1660.00 -10.81090392   2.33356220
1661.00 -10.82819755   2.33771287
1662.00 -10.84550058   2.34186833
1663.00 -10.86281300   2.34602860
1664.00 -10.88013480   2.35019366
1665.00 -10.89746599   2.35436353
1666.00 -10.91480657   2.35853821
1667.00 -10.93215652   2.36271769
1668.00 -10.94951586   2.36690199
1669.00 -10.96688457   2.37109110
1670.00 -10.98426266   2.37528502
1671.00 -11.00165012   2.37948377
1672.00 -11.01904696   2.38368733
1673.00 -11.03645317   2.38789572
1674.00 -11.05386875   2.39210893
1675.00 -11.07129370   2.39632697
1676.00 -11.08872801   2.40054984
1677.00 -11.10617169   2.40477754
1678.00 -11.12362473   2.40901008
1679.00 -11.14108713   2.41324746
1680.00 -11.15855889   2.41748967
1681.00 -11.17604000   2.42173673
1682.00 -11.19353048   2.42598863
1683.00 -11.21103030   2.43024538
1684.00 -11.22853948   2.43450698
1685.00 -11.24605801   2.43877343
1686.00 -11.26358588   2.44304473
1687.00 -11.28112310   2.44732090
1688.00 -11.29866967   2.45160192
1689.00 -11.31622558   2.45588780
1690.00 -11.33379083   2.46017854
1691.00 -11.35136542   2.46447416
1692.00 -11.36894935   2.46877464
1693.00 -11.38654262   2.47307999
1694.00 -11.40414521   2.47739021
1695.00 -11.42175714   2.48170531
1696.00 -11.43937840   2.48602529
1697.00 -11.45700899   2.49035015
1698.00 -11.47464891   2.49467989
1699.00 -11.49229815   2.49901452
1700.00 -11.50995672   2.50335404
1701.00 -11.52762460   2.50769844
1702.00 -11.54530181   2.51204774
1703.00 -11.56298833   2.51640193
1704.00 -11.58068417   2.52076102
1705.00 -11.59838933   2.52512501
1706.00 -11.61610379   2.52949390
1707.00 -11.63382757   2.53386770
1708.00 -11.65156066   2.53824640
1709.00 -11.66930305   2.54263001
1710.00 -11.68705475   2.54701853
1711.00 -11.70481576   2.55141197
1712.00 -11.72258606   2.55581032
1713.00 -11.74036567   2.56021359
1714.00 -11.75815457   2.56462179
1715.00 -11.77595277   2.56903490
1716.00 -11.79376026   2.57345294
1717.00 -11.81157705   2.57787591
1718.00 -11.82940313   2.58230381
1719.00 -11.84723850   2.58673664
1720.00 -11.86508315   2.59117441
1721.00 -11.88293709   2.59561712
1722.00 -11.90080032   2.60006476
1723.00 -11.91867282   2.60451735
1724.00 -11.93655461   2.60897488
1725.00 -11.95444567   2.61343736
1726.00 -11.97234601   2.61790479
1727.00 -11.99025563   2.62237717
1728.00 -12.00817452   2.62685450
1729.00 -12.02610268   2.63133679
1730.00 -12.04404011   2.63582404
1731.00 -12.06198681   2.64031625
1732.00 -12.07994277   2.64481343
1733.00 -12.09790800   2.64931557
1734.00 -12.11588249   2.65382268
1735.00 -12.13386624   2.65833475
1736.00 -12.15185924   2.66285181
1737.00 -12.16986151   2.66737383
1738.00 -12.18787303   2.67190084
1739.00 -12.20589380   2.67643282
1740.00 -12.22392382   2.68096979
1741.00 -12.24196309   2.68551174
1742.00 -12.26001161   2.69005868
1743.00 -12.27806938   2.69461060
1744.00 -12.29613639   2.69916752
1745.00 -12.31421264   2.70372944
1746.00 -12.33229814   2.70829635
1747.00 -12.35039287   2.71286826
1748.00 -12.36849683   2.71744516
1749.00 -12.38661004   2.72202708
1750.00 -12.40473247   2.72661400
1751.00 -12.42286414   2.73120592
1752.00 -12.44100503   2.73580286
1753.00 -12.45915516   2.74040481
1754.00 -12.47731450   2.74501178
1755.00 -12.49548308   2.74962376
1756.00 -12.51366087   2.75424076
1757.00 -12.53184789   2.75886279
1758.00 -12.55004412   2.76348984
1759.00 -12.56824957   2.76812191
1760.00 -12.58646423   2.77275902
1761.00 -12.60468811   2.77740115
1762.00 -12.62292120   2.78204832
1763.00 -12.64116349   2.78670053
1764.00 -12.65941500   2.79135778
1765.00 -12.67767571   2.79602006
1766.00 -12.69594562   2.80068739
1767.00 -12.71422474   2.80535977
1768.00 -12.73251305   2.81003719
1769.00 -12.75081057   2.81471966
1770.00 -12.76911728   2.81940719
1771.00 -12.78743318   2.82409977
1772.00 -12.80575828   2.82879740
1773.00 -12.82409257   2.83350010
1774.00 -12.84243604   2.83820786
1775.00 -12.86078871   2.84292068
1776.00 -12.87915056   2.84763857
1777.00 -12.89752159   2.85236152
1778.00 -12.91590180   2.85708955
1779.00 -12.93429119   2.86182265
1780.00 -12.95268977   2.86656083
1781.00 -12.97109751   2.87130409
1782.00 -12.98951443   2.87605242
1783.00 -13.00794053   2.88080584
1784.00 -13.02637579   2.88556434
1785.00 -13.04482023   2.89032793
1786.00 -13.06327382   2.89509661
1787.00 -13.08173659   2.89987038
1788.00 -13.10020852   2.90464925
1789.00 -13.11868961   2.90943321
1790.00 -13.13717985   2.91422227
1791.00 -13.15567926   2.91901643
1792.00 -13.17418782   2.92381570
1793.00 -13.19270553   2.92862007
1794.00 -13.21123240   2.93342955
1795.00 -13.22976842   2.93824414
1796.00 -13.24831358   2.94306384
1797.00 -13.26686789   2.94788866
1798.00 -13.28543135   2.95271859
1799.00 -13.30400395   2.95755364
1800.00 -13.32258568   2.96239382
1801.00 -13.34117656   2.96723912
1802.00 -13.35977658   2.97208955
1803.00 -13.37838573   2.97694510
1804.00 -13.39700401   2.98180579
1805.00 -13.41563142   2.98667160
1806.00 -13.43426797   2.99154256
1807.00 -13.45291364   2.99641865
1808.00 -13.47156844   3.00129988
1809.00 -13.49023236   3.00618626
1810.00 -13.50890540   3.01107778
1811.00 -13.52758756   3.01597445
1812.00 -13.54627885   3.02087626
1813.00 -13.56497924   3.02578323
1814.00 -13.58368876   3.03069535
1815.00 -13.60240738   3.03561263
1816.00 -13.62113512   3.04053507
1817.00 -13.63987196   3.04546267
1818.00 -13.65861792   3.05039543
1819.00 -13.67737297   3.05533335
1820.00 -13.69613713   3.06027645
1821.00 -13.71491039   3.06522471
1822.00 -13.73369276   3.07017815
1823.00 -13.75248422   3.07513676
1824.00 -13.77128477   3.08010054
1825.00 -13.79009442   3.08506951
1826.00 -13.80891316   3.09004366
1827.00 -13.82774099   3.09502299
1828.00 -13.84657791   3.10000751
1829.00 -13.86542392   3.10499721
1830.00 -13.88427901   3.10999211
1831.00 -13.90314318   3.11499219
1832.00 -13.92201643   3.11999748
1833.00 -13.94089876   3.12500796
1834.00 -13.95979017   3.13002364
1835.00 -13.97869066   3.13504452
1836.00 -13.99760021   3.14007061
1837.00 -14.01651884   3.14510190
1838.00 -14.03544654   3.15013840
1839.00 -14.05438331   3.15518011
1840.00 -14.07332914   3.16022704
1841.00 -14.09228403   3.16527918
1842.00 -14.11124799   3.17033653
1843.00 -14.13022100   3.17539911
1844.00 -14.14920308   3.18046691
1845.00 -14.16819421   3.18553994
1846.00 -14.18719439   3.19061819
1847.00 -14.20620363   3.19570167
1848.00 -14.22522192   3.20079038
1849.00 -14.24424925   3.20588433
1850.00 -14.26328563   3.21098351
1851.00 -14.28233106   3.21608793
1852.00 -14.30138553   3.22119759
1853.00 -14.32044904   3.22631249
1854.00 -14.33952159   3.23143263
1855.00 -14.35860318   3.23655803
1856.00 -14.37769380   3.24168867
1857.00 -14.39679346   3.24682457
1858.00 -14.41590214   3.25196571
1859.00 -14.43501986   3.25711212
1860.00 -14.45414660   3.26226378
1861.00 -14.47328237   3.26742070
1862.00 -14.49242717   3.27258289
1863.00 -14.51158098   3.27775034
1864.00 -14.53074382   3.28292306
1865.00 -14.54991567   3.28810105
1866.00 -14.56909654   3.29328431
1867.00 -14.58828642   3.29847284
1868.00 -14.60748532   3.30366665
1869.00 -14.62669323   3.30886574
1870.00 -14.64591014   3.31407011
1871.00 -14.66513606   3.31927976
1872.00 -14.68437099   3.32449470
1873.00 -14.70361492   3.32971492
1874.00 -14.72286785   3.33494044
1875.00 -14.74212977   3.34017124
1876.00 -14.76140070   3.34540734
1877.00 -14.78068062   3.35064874
1878.00 -14.79996953   3.35589544
1879.00 -14.81926744   3.36114743
1880.00 -14.83857433   3.36640473
1881.00 -14.85789021   3.37166734
1882.00 -14.87721508   3.37693525
1883.00 -14.89654893   3.38220847
1884.00 -14.91589176   3.38748701
1885.00 -14.93524357   3.39277086
1886.00 -14.95460436   3.39806002
1887.00 -14.97397413   3.40335451
1888.00 -14.99335287   3.40865431
1889.00 -15.01274058   3.41395944
1890.00 -15.03213726   3.41926989
1891.00 -15.05154291   3.42458568
1892.00 -15.07095753   3.42990679
1893.00 -15.09038111   3.43523323
1894.00 -15.10981365   3.44056501
1895.00 -15.12925515   3.44590212
1896.00 -15.14870561   3.45124457
1897.00 -15.16816503   3.45659237
1898.00 -15.18763340   3.46194550
1899.00 -15.20711073   3.46730399
1900.00 -15.22659700   3.47266782
1901.00 -15.24609223   3.47803700
1902.00 -15.26559640   3.48341153
1903.00 -15.28510951   3.48879141
1904.00 -15.30463157   3.49417666
1905.00 -15.32416257   3.49956726
1906.00 -15.34370251   3.50496322
1907.00 -15.36325139   3.51036454
1908.00 -15.38280920   3.51577123
1909.00 -15.40237595   3.52118329
1910.00 -15.42195162   3.52660072
1911.00 -15.44153623   3.53202352
1912.00 -15.46112976   3.53745169
1913.00 -15.48073222   3.54288524
1914.00 -15.50034360   3.54832417
1915.00 -15.51996391   3.55376848
1916.00 -15.53959313   3.55921817
1917.00 -15.55923127   3.56467324
1918.00 -15.57887833   3.57013371
1919.00 -15.59853430   3.57559956
1920.00 -15.61819919   3.58107081
1921.00 -15.63787298   3.58654745
1922.00 -15.65755568   3.59202948
1923.00 -15.67724729   3.59751692
1924.00 -15.69694780   3.60300975
1925.00 -15.71665721   3.60850799
1926.00 -15.73637553   3.61401163
1927.00 -15.75610274   3.61952068
1928.00 -15.77583885   3.62503513
1929.00 -15.79558385   3.63055500
1930.00 -15.81533774   3.63608029
1931.00 -15.83510053   3.64161099
1932.00 -15.85487220   3.64714710
1933.00 -15.87465276   3.65268864
1934.00 -15.89444221   3.65823560
1935.00 -15.91424053   3.66378798
1936.00 -15.93404774   3.66934579
1937.00 -15.95386383   3.67490903
1938.00 -15.97368879   3.68047771
1939.00 -15.99352263   3.68605181
1940.00 -16.01336534   3.69163135
1941.00 -16.03321692   3.69721633
1942.00 -16.05307737   3.70280674
1943.00 -16.07294669   3.70840260
1944.00 -16.09282488   3.71400391
1945.00 -16.11271192   3.71961066
1946.00 -16.13260783   3.72522286
1947.00 -16.15251259   3.73084050
1948.00 -16.17242622   3.73646361
1949.00 -16.19234869   3.74209216
1950.00 -16.21228002   3.74772618
1951.00 -16.23222021   3.75336565
1952.00 -16.25216924   3.75901059
1953.00 -16.27212712   3.76466099
1954.00 -16.29209384   3.77031685
1955.00 -16.31206941   3.77597818
1956.00 -16.33205382   3.78164499
1957.00 -16.35204706   3.78731726
1958.00 -16.37204915   3.79299501
1959.00 -16.39206007   3.79867824
1960.00 -16.41207982   3.80436695
1961.00 -16.43210841   3.81006113
1962.00 -16.45214582   3.81576080
1963.00 -16.47219207   3.82146596
1964.00 -16.49224713   3.82717660
1965.00 -16.51231102   3.83289274
1966.00 -16.53238374   3.83861436
1967.00 -16.55246527   3.84434148
1968.00 -16.57255562   3.85007409
1969.00 -16.59265479   3.85581221
1970.00 -16.61276276   3.86155582
1971.00 -16.63287956   3.86730494
1972.00 -16.65300516   3.87305956
1973.00 -16.67313956   3.87881969
1974.00 -16.69328278   3.88458533
1975.00 -16.71343480   3.89035647
1976.00 -16.73359562   3.89613314
1977.00 -16.75376523   3.90191531
1978.00 -16.77394365   3.90770301
1979.00 -16.79413086   3.91349622
1980.00 -16.81432687   3.91929496
1981.00 -16.83453167   3.92509922
1982.00 -16.85474526   3.93090901
1983.00 -16.87496763   3.93672433
1984.00 -16.89519879   3.94254517
1985.00 -16.91543874   3.94837155
1986.00 -16.93568747   3.95420347
1987.00 -16.95594497   3.96004092
1988.00 -16.97621126   3.96588391
1989.00 -16.99648632   3.97173244
1990.00 -17.01677016   3.97758651
1991.00 -17.03706276   3.98344613
1992.00 -17.05736414   3.98931130
1993.00 -17.07767428   3.99518202
1994.00 -17.09799319   4.00105829
1995.00 -17.11832087   4.00694011
1996.00 -17.13865730   4.01282749
1997.00 -17.15900250   4.01872043
1998.00 -17.17935645   4.02461893
1999.00 -17.19971916   4.03052299
2000.00 -17.22009063   4.03643262
