wavelength(nm)         real         imag
200.00   3.69815395   0.00385764
201.00   3.69613119   0.00391578
202.00   3.69409835   0.00397451
203.00   3.69205544   0.00403381
204.00   3.69000246   0.00409370
205.00   3.68793941   0.00415418
206.00   3.68586628   0.00421526
207.00   3.68378308   0.00427693
208.00   3.68168981   0.00433920
209.00   3.67958647   0.00440207
210.00   3.67747305   0.00446554
211.00   3.67534957   0.00452962
212.00   3.67321601   0.00459431
213.00   3.67107238   0.00465961
214.00   3.66891868   0.00472553
215.00   3.66675491   0.00479207
216.00   3.66458107   0.00485923
217.00   3.66239715   0.00492701
218.00   3.66020317   0.00499542
219.00   3.65799912   0.00506446
220.00   3.65578500   0.00513413
221.00   3.65356081   0.00520444
222.00   3.65132655   0.00527539
223.00   3.64908222   0.00534698
224.00   3.64682783   0.00541921
225.00   3.64456336   0.00549209
226.00   3.64228883   0.00556562
227.00   3.64000423   0.00563980
228.00   3.63770956   0.00571464
229.00   3.63540483   0.00579014
230.00   3.63309002   0.00586630
231.00   3.63076515   0.00594313
232.00   3.62843022   0.00602062
233.00   3.62608522   0.00609879
234.00   3.62373015   0.00617762
235.00   3.62136502   0.00625713
236.00   3.61898982   0.00633733
237.00   3.61660455   0.00641820
238.00   3.61420922   0.00649976
239.00   3.61180383   0.00658200
240.00   3.60938837   0.00666494
241.00   3.60696285   0.00674857
242.00   3.60452726   0.00683289
243.00   3.60208161   0.00691792
244.00   3.59962590   0.00700365
245.00   3.59716012   0.00709008
246.00   3.59468428   0.00717722
247.00   3.59219838   0.00726507
248.00   3.58970242   0.00735363
249.00   3.58719639   0.00744291
250.00   3.58468030   0.00753291
251.00   3.58215415   0.00762364
252.00   3.57961794   0.00771508
253.00   3.57707167   0.00780726
254.00   3.57451534   0.00790017
255.00   3.57194895   0.00799381
256.00   3.56937249   0.00808818
257.00   3.56678598   0.00818330
258.00   3.56418941   0.00827916
259.00   3.56158278   0.00837576
260.00   3.55896609   0.00847311
261.00   3.55633934   0.00857121
262.00   3.55370253   0.00867007
263.00   3.55105567   0.00876968
264.00   3.54839874   0.00887005
265.00   3.54573176   0.00897119
266.00   3.54305473   0.00907309
267.00   3.54036763   0.00917576
268.00   3.53767048   0.00927920
269.00   3.53496327   0.00938341
270.00   3.53224601   0.00948840
271.00   3.52951869   0.00959417
272.00   3.52678132   0.00970073
273.00   3.52403389   0.00980806
274.00   3.52127640   0.00991619
275.00   3.51850886   0.01002511
276.00   3.51573127   0.01013482
277.00   3.51294362   0.01024533
278.00   3.51014592   0.01035664
279.00   3.50733817   0.01046875
280.00   3.50452036   0.01058167
281.00   3.50169250   0.01069539
282.00   3.49885459   0.01080993
283.00   3.49600662   0.01092528
284.00   3.49314861   0.01104145
285.00   3.49028054   0.01115844
286.00   3.48740242   0.01127625
287.00   3.48451425   0.01139489
288.00   3.48161603   0.01151435
289.00   3.47870776   0.01163465
290.00   3.47578944   0.01175578
291.00   3.47286107   0.01187775
292.00   3.46992265   0.01200056
293.00   3.46697418   0.01212421
294.00   3.46401567   0.01224870
295.00   3.46104710   0.01237405
296.00   3.45806849   0.01250025
297.00   3.45507983   0.01262730
298.00   3.45208112   0.01275521
299.00   3.44907237   0.01288398
300.00   3.44605356   0.01301361
301.00   3.44302472   0.01314411
302.00   3.43998582   0.01327548
303.00   3.43693688   0.01340771
304.00   3.43387790   0.01354083
305.00   3.43080887   0.01367482
306.00   3.42772980   0.01380969
307.00   3.42464068   0.01394544
308.00   3.42154152   0.01408208
309.00   3.41843231   0.01421961
310.00   3.41531306   0.01435803
311.00   3.41218377   0.01449735
312.00   3.40904443   0.01463756
313.00   3.40589506   0.01477867
314.00   3.40273564   0.01492069
315.00   3.39956618   0.01506361
316.00   3.39638667   0.01520744
317.00   3.39319713   0.01535219
318.00   3.38999755   0.01549785
319.00   3.38678792   0.01564442
320.00   3.38356826   0.01579192
321.00   3.38033856   0.01594034
322.00   3.37709882   0.01608968
323.00   3.37384904   0.01623996
324.00   3.37058922   0.01639116
325.00   3.36731936   0.01654330
326.00   3.36403947   0.01669638
327.00   3.36074953   0.01685040
328.00   3.35744956   0.01700536
329.00   3.35413956   0.01716127
330.00   3.35081952   0.01731813
331.00   3.34748944   0.01747594
332.00   3.34414932   0.01763470
333.00   3.34079918   0.01779443
334.00   3.33743899   0.01795511
335.00   3.33406877   0.01811675
336.00   3.33068852   0.01827937
337.00   3.32729824   0.01844295
338.00   3.32389792   0.01860750
339.00   3.32048757   0.01877303
340.00   3.31706718   0.01893954
341.00   3.31363676   0.01910702
342.00   3.31019632   0.01927549
343.00   3.30674584   0.01944495
344.00   3.30328532   0.01961540
345.00   3.29981478   0.01978683
346.00   3.29633421   0.01995927
347.00   3.29284361   0.02013270
348.00   3.28934298   0.02030713
349.00   3.28583232   0.02048256
350.00   3.28231163   0.02065901
351.00   3.27878091   0.02083646
352.00   3.27524016   0.02101492
353.00   3.27168939   0.02119440
354.00   3.26812859   0.02137489
355.00   3.26455776   0.02155641
356.00   3.26097691   0.02173895
357.00   3.25738602   0.02192251
358.00   3.25378512   0.02210711
359.00   3.25017419   0.02229273
360.00   3.24655323   0.02247940
361.00   3.24292225   0.02266710
362.00   3.23928124   0.02285584
363.00   3.23563022   0.02304562
364.00   3.23196916   0.02323645
365.00   3.22829809   0.02342833
366.00   3.22461699   0.02362126
367.00   3.22092587   0.02381525
368.00   3.21722473   0.02401030
369.00   3.21351357   0.02420640
370.00   3.20979238   0.02440357
371.00   3.20606118   0.02460181
372.00   3.20231996   0.02480111
373.00   3.19856871   0.02500149
374.00   3.19480745   0.02520294
375.00   3.19103617   0.02540547
376.00   3.18725487   0.02560908
377.00   3.18346355   0.02581378
378.00   3.17966221   0.02601956
379.00   3.17585086   0.02622643
380.00   3.17202949   0.02643439
381.00   3.16819810   0.02664345
382.00   3.16435670   0.02685360
383.00   3.16050528   0.02706486
384.00   3.15664385   0.02727722
385.00   3.15277240   0.02749069
386.00   3.14889094   0.02770526
387.00   3.14499946   0.02792095
388.00   3.14109798   0.02813775
389.00   3.13718647   0.02835567
390.00   3.13326496   0.02857471
391.00   3.12933343   0.02879488
392.00   3.12539189   0.02901617
393.00   3.12144034   0.02923859
394.00   3.11747878   0.02946214
395.00   3.11350721   0.02968683
396.00   3.10952563   0.02991265
397.00   3.10553404   0.03013962
398.00   3.10153244   0.03036773
399.00   3.09752083   0.03059698
400.00   3.09349921   0.03082739
401.00   3.08946759   0.03105894
402.00   3.08542596   0.03129166
403.00   3.08137432   0.03152553
404.00   3.07731267   0.03176056
405.00   3.07324102   0.03199675
406.00   3.06915936   0.03223411
407.00   3.06506770   0.03247264
408.00   3.06096603   0.03271234
409.00   3.05685436   0.03295322
410.00   3.05273269   0.03319527
411.00   3.04860101   0.03343851
412.00   3.04445933   0.03368293
413.00   3.04030764   0.03392853
414.00   3.03614596   0.03417532
415.00   3.03197427   0.03442331
416.00   3.02779258   0.03467249
417.00   3.02360089   0.03492287
418.00   3.01939920   0.03517445
419.00   3.01518751   0.03542723
420.00   3.01096583   0.03568122
421.00   3.00673414   0.03593642
422.00   3.00249245   0.03619283
423.00   2.99824077   0.03645045
424.00   2.99397909   0.03670929
425.00   2.98970741   0.03696935
426.00   2.98542574   0.03723064
427.00   2.98113407   0.03749315
428.00   2.97683240   0.03775689
429.00   2.97252074   0.03802187
430.00   2.96819909   0.03828807
431.00   2.96386744   0.03855552
432.00   2.95952579   0.03882420
433.00   2.95517416   0.03909413
434.00   2.95081253   0.03936531
435.00   2.94644091   0.03963773
436.00   2.94205929   0.03991141
437.00   2.93766769   0.04018634
438.00   2.93326609   0.04046253
439.00   2.92885451   0.04073997
440.00   2.92443293   0.04101869
441.00   2.92000137   0.04129866
442.00   2.91555982   0.04157991
443.00   2.91110827   0.04186243
444.00   2.90664674   0.04214622
445.00   2.90217523   0.04243129
446.00   2.89769372   0.04271764
447.00   2.89320223   0.04300527
448.00   2.88870075   0.04329419
449.00   2.88418929   0.04358440
450.00   2.87966784   0.04387590
451.00   2.87513641   0.04416869
452.00   2.87059500   0.04446278
453.00   2.86604360   0.04475817
454.00   2.86148222   0.04505487
455.00   2.85691085   0.04535287
456.00   2.85232950   0.04565218
457.00   2.84773818   0.04595280
458.00   2.84313687   0.04625473
459.00   2.83852558   0.04655798
460.00   2.83390431   0.04686255
461.00   2.82927306   0.04716845
462.00   2.82463183   0.04747567
463.00   2.81998062   0.04778422
464.00   2.81531944   0.04809410
465.00   2.81064827   0.04840531
466.00   2.80596714   0.04871786
467.00   2.80127602   0.04903175
468.00   2.79657493   0.04934699
469.00   2.79186386   0.04966357
470.00   2.78714282   0.04998149
471.00   2.78241180   0.05030077
472.00   2.77767081   0.05062140
473.00   2.77291985   0.05094339
474.00   2.76815891   0.05126674
475.00   2.76338800   0.05159146
476.00   2.75860712   0.05191753
477.00   2.75381627   0.05224498
478.00   2.74901545   0.05257379
479.00   2.74420465   0.05290399
480.00   2.73938389   0.05323555
481.00   2.73455316   0.05356850
482.00   2.72971246   0.05390283
483.00   2.72486179   0.05423854
484.00   2.72000115   0.05457565
485.00   2.71513055   0.05491414
486.00   2.71024998   0.05525403
487.00   2.70535944   0.05559531
488.00   2.70045894   0.05593799
489.00   2.69554847   0.05628208
490.00   2.69062804   0.05662757
491.00   2.68569765   0.05697447
492.00   2.68075729   0.05732277
493.00   2.67580697   0.05767250
494.00   2.67084669   0.05802364
495.00   2.66587644   0.05837619
496.00   2.66089623   0.05873017
497.00   2.65590607   0.05908558
498.00   2.65090594   0.05944241
499.00   2.64589585   0.05980067
500.00   2.64087581   0.06016037
501.00   2.63584580   0.06052150
502.00   2.63080584   0.06088408
503.00   2.62575592   0.06124809
504.00   2.62069604   0.06161355
505.00   2.61562621   0.06198045
506.00   2.61054642   0.06234881
507.00   2.60545668   0.06271862
508.00   2.60035698   0.06308988
509.00   2.59524733   0.06346261
510.00   2.59012772   0.06383679
511.00   2.58499816   0.06421244
512.00   2.57985865   0.06458956
513.00   2.57470919   0.06496815
514.00   2.56954977   0.06534821
515.00   2.56438041   0.06572974
516.00   2.55920109   0.06611276
517.00   2.55401183   0.06649726
518.00   2.54881261   0.06688324
519.00   2.54360345   0.06727070
520.00   2.53838434   0.06765966
521.00   2.53315528   0.06805011
522.00   2.52791628   0.06844206
523.00   2.52266733   0.06883550
524.00   2.51740843   0.06923045
525.00   2.51213959   0.06962689
526.00   2.50686080   0.07002485
527.00   2.50157207   0.07042432
528.00   2.49627340   0.07082529
529.00   2.49096479   0.07122779
530.00   2.48564623   0.07163180
531.00   2.48031773   0.07203733
532.00   2.47497929   0.07244439
533.00   2.46963091   0.07285297
534.00   2.46427258   0.07326308
535.00   2.45890432   0.07367473
536.00   2.45352613   0.07408791
537.00   2.44813799   0.07450262
538.00   2.44273991   0.07491888
539.00   2.43733190   0.07533668
540.00   2.43191395   0.07575603
541.00   2.42648607   0.07617693
542.00   2.42104825   0.07659937
543.00   2.41560050   0.07702338
544.00   2.41014281   0.07744894
545.00   2.40467519   0.07787606
546.00   2.39919764   0.07830475
547.00   2.39371015   0.07873500
548.00   2.38821273   0.07916682
549.00   2.38270539   0.07960021
550.00   2.37718811   0.08003517
551.00   2.37166090   0.08047171
552.00   2.36612376   0.08090984
553.00   2.36057669   0.08134954
554.00   2.35501970   0.08179084
555.00   2.34945278   0.08223372
556.00   2.34387593   0.08267819
557.00   2.33828916   0.08312425
558.00   2.33269245   0.08357192
559.00   2.32708583   0.08402118
560.00   2.32146928   0.08447204
561.00   2.31584281   0.08492451
562.00   2.31020641   0.08537859
563.00   2.30456009   0.08583428
564.00   2.29890385   0.08629159
565.00   2.29323769   0.08675051
566.00   2.28756160   0.08721105
567.00   2.28187560   0.08767321
568.00   2.27617968   0.08813700
569.00   2.27047384   0.08860241
570.00   2.26475808   0.08906946
571.00   2.25903240   0.08953814
572.00   2.25329681   0.09000845
573.00   2.24755130   0.09048041
574.00   2.24179587   0.09095400
575.00   2.23603053   0.09142924
576.00   2.23025527   0.09190613
577.00   2.22447010   0.09238467
578.00   2.21867502   0.09286487
579.00   2.21287002   0.09334672
580.00   2.20705512   0.09383022
581.00   2.20123030   0.09431539
582.00   2.19539557   0.09480223
583.00   2.18955093   0.09529073
584.00   2.18369638   0.09578090
585.00   2.17783192   0.09627274
586.00   2.17195756   0.09676626
587.00   2.16607328   0.09726146
588.00   2.16017910   0.09775834
589.00   2.15427502   0.09825690
590.00   2.14836102   0.09875715
591.00   2.14243713   0.09925909
592.00   2.13650332   0.09976272
593.00   2.13055962   0.10026805
594.00   2.12460601   0.10077507
595.00   2.11864250   0.10128380
596.00   2.11266909   0.10179423
597.00   2.10668578   0.10230637
598.00   2.10069256   0.10282021
599.00   2.09468945   0.10333577
600.00   2.08867644   0.10385304
601.00   2.08265352   0.10437203
602.00   2.07662072   0.10489274
603.00   2.07057801   0.10541518
604.00   2.06452541   0.10593934
605.00   2.05846291   0.10646523
606.00   2.05239051   0.10699285
607.00   2.04630823   0.10752220
608.00   2.04021604   0.10805329
609.00   2.03411397   0.10858613
610.00   2.02800200   0.10912070
611.00   2.02188014   0.10965702
612.00   2.01574839   0.11019509
613.00   2.00960675   0.11073491
614.00   2.00345522   0.11127649
615.00   1.99729380   0.11181982
616.00   1.99112249   0.11236491
617.00   1.98494129   0.11291176
618.00   1.97875020   0.11346038
619.00   1.97254923   0.11401077
620.00   1.96633838   0.11456293
621.00   1.96011763   0.11511686
622.00   1.95388701   0.11567257
623.00   1.94764650   0.11623005
624.00   1.94139610   0.11678932
625.00   1.93513583   0.11735038
626.00   1.92886567   0.11791322
627.00   1.92258563   0.11847785
628.00   1.91629571   0.11904427
629.00   1.90999591   0.11961249
630.00   1.90368623   0.12018251
631.00   1.89736667   0.12075434
632.00   1.89103724   0.12132796
633.00   1.88469793   0.12190339
634.00   1.87834874   0.12248064
635.00   1.87198968   0.12305969
636.00   1.86562074   0.12364056
637.00   1.85924192   0.12422325
638.00   1.85285324   0.12480776
639.00   1.84645468   0.12539409
640.00   1.84004625   0.12598226
641.00   1.83362794   0.12657225
642.00   1.82719977   0.12716407
643.00   1.82076172   0.12775772
644.00   1.81431381   0.12835322
645.00   1.80785603   0.12895056
646.00   1.80138838   0.12954973
647.00   1.79491086   0.13015076
648.00   1.78842347   0.13075363
649.00   1.78192622   0.13135836
650.00   1.77541911   0.13196494
651.00   1.76890213   0.13257338
652.00   1.76237528   0.13318367
653.00   1.75583858   0.13379583
654.00   1.74929201   0.13440986
655.00   1.74273558   0.13502576
656.00   1.73616928   0.13564352
657.00   1.72959313   0.13626316
658.00   1.72300712   0.13688468
659.00   1.71641125   0.13750807
660.00   1.70980552   0.13813335
661.00   1.70318993   0.13876052
662.00   1.69656449   0.13938957
663.00   1.68992919   0.14002051
664.00   1.68328404   0.14065334
665.00   1.67662903   0.14128808
666.00   1.66996417   0.14192471
667.00   1.66328945   0.14256324
668.00   1.65660488   0.14320368
669.00   1.64991046   0.14384602
670.00   1.64320619   0.14449028
671.00   1.63649207   0.14513644
672.00   1.62976810   0.14578453
673.00   1.62303428   0.14643453
674.00   1.61629061   0.14708645
675.00   1.60953710   0.14774030
676.00   1.60277374   0.14839607
677.00   1.59600053   0.14905377
678.00   1.58921748   0.14971341
679.00   1.58242458   0.15037498
680.00   1.57562184   0.15103849
681.00   1.56880926   0.15170394
682.00   1.56198684   0.15237133
683.00   1.55515457   0.15304067
684.00   1.54831246   0.15371196
685.00   1.54146052   0.15438520
686.00   1.53459873   0.15506039
687.00   1.52772710   0.15573754
688.00   1.52084564   0.15641665
689.00   1.51395434   0.15709773
690.00   1.50705321   0.15778077
691.00   1.50014224   0.15846578
692.00   1.49322143   0.15915276
693.00   1.48629079   0.15984171
694.00   1.47935032   0.16053264
695.00   1.47240001   0.16122555
696.00   1.46543988   0.16192044
697.00   1.45846991   0.16261732
698.00   1.45149011   0.16331618
699.00   1.44450048   0.16401704
700.00   1.43750102   0.16471989
701.00   1.43049174   0.16542473
702.00   1.42347263   0.16613157
703.00   1.41644369   0.16684042
704.00   1.40940493   0.16755127
705.00   1.40235634   0.16826412
706.00   1.39529792   0.16897899
707.00   1.38822969   0.16969587
708.00   1.38115163   0.17041476
709.00   1.37406375   0.17113568
710.00   1.36696605   0.17185861
711.00   1.35985852   0.17258357
712.00   1.35274118   0.17331055
713.00   1.34561402   0.17403956
714.00   1.33847704   0.17477061
715.00   1.33133025   0.17550369
716.00   1.32417364   0.17623881
717.00   1.31700721   0.17697596
718.00   1.30983097   0.17771516
719.00   1.30264491   0.17845641
720.00   1.29544904   0.17919970
721.00   1.28824335   0.17994505
722.00   1.28102786   0.18069245
723.00   1.27380255   0.18144191
724.00   1.26656744   0.18219343
725.00   1.25932251   0.18294700
726.00   1.25206778   0.18370265
727.00   1.24480324   0.18446036
728.00   1.23752889   0.18522014
729.00   1.23024473   0.18598200
730.00   1.22295077   0.18674593
731.00   1.21564700   0.18751194
732.00   1.20833343   0.18828004
733.00   1.20101006   0.18905021
734.00   1.19367688   0.18982248
735.00   1.18633391   0.19059683
736.00   1.17898113   0.19137328
737.00   1.17161855   0.19215182
738.00   1.16424617   0.19293246
739.00   1.15686400   0.19371521
740.00   1.14947203   0.19450005
741.00   1.14207026   0.19528700
742.00   1.13465869   0.19607606
743.00   1.12723733   0.19686724
744.00   1.11980617   0.19766052
745.00   1.11236522   0.19845593
746.00   1.10491448   0.19925346
747.00   1.09745395   0.20005310
748.00   1.08998362   0.20085488
749.00   1.08250350   0.20165878
750.00   1.07501360   0.20246481
751.00   1.06751390   0.20327298
752.00   1.06000442   0.20408329
753.00   1.05248515   0.20489573
754.00   1.04495610   0.20571032
755.00   1.03741726   0.20652705
756.00   1.02986863   0.20734593
757.00   1.02231022   0.20816695
758.00   1.01474203   0.20899014
759.00   1.00716405   0.20981547
760.00   0.99957629   0.21064297
761.00   0.99197876   0.21147263
762.00   0.98437144   0.21230445
763.00   0.97675434   0.21313844
764.00   0.96912747   0.21397460
765.00   0.96149081   0.21481293
766.00   0.95384439   0.21565344
767.00   0.94618818   0.21649612
768.00   0.93852220   0.21734099
769.00   0.93084645   0.21818804
770.00   0.92316092   0.21903727
771.00   0.91546562   0.21988869
772.00   0.90776055   0.22074231
773.00   0.90004571   0.22159812
774.00   0.89232110   0.22245612
775.00   0.88458672   0.22331633
776.00   0.87684257   0.22417874
777.00   0.86908865   0.22504335
778.00   0.86132497   0.22591017
779.00   0.85355152   0.22677921
780.00   0.84576831   0.22765045
781.00   0.83797533   0.22852391
782.00   0.83017259   0.22939959
783.00   0.82236009   0.23027750
784.00   0.81453782   0.23115762
785.00   0.80670580   0.23203998
786.00   0.79886401   0.23292456
787.00   0.79101247   0.23381138
788.00   0.78315117   0.23470043
789.00   0.77528011   0.23559172
790.00   0.76739929   0.23648525
791.00   0.75950872   0.23738103
792.00   0.75160839   0.23827905
793.00   0.74369831   0.23917932
794.00   0.73577848   0.24008184
795.00   0.72784889   0.24098662
796.00   0.71990955   0.24189365
797.00   0.71196047   0.24280295
798.00   0.70400163   0.24371450
799.00   0.69603304   0.24462832
800.00   0.68805471   0.24554441
801.00   0.68006663   0.24646278
802.00   0.67206880   0.24738341
803.00   0.66406123   0.24830632
804.00   0.65604391   0.24923151
805.00   0.64801685   0.25015898
806.00   0.63998004   0.25108874
807.00   0.63193350   0.25202078
808.00   0.62387721   0.25295511
809.00   0.61581119   0.25389174
810.00   0.60773542   0.25483066
811.00   0.59964991   0.25577188
812.00   0.59155467   0.25671540
813.00   0.58344969   0.25766123
814.00   0.57533498   0.25860936
815.00   0.56721053   0.25955980
816.00   0.55907634   0.26051255
817.00   0.55093243   0.26146761
818.00   0.54277878   0.26242499
819.00   0.53461540   0.26338470
820.00   0.52644229   0.26434672
821.00   0.51825944   0.26531107
822.00   0.51006688   0.26627775
823.00   0.50186458   0.26724676
824.00   0.49365255   0.26821810
825.00   0.48543080   0.26919178
826.00   0.47719932   0.27016780
827.00   0.46895812   0.27114616
828.00   0.46070720   0.27212687
829.00   0.45244655   0.27310992
830.00   0.44417618   0.27409532
831.00   0.43589609   0.27508307
832.00   0.42760629   0.27607318
833.00   0.41930676   0.27706565
834.00   0.41099751   0.27806048
835.00   0.40267855   0.27905767
836.00   0.39434987   0.28005723
837.00   0.38601147   0.28105915
838.00   0.37766336   0.28206345
839.00   0.36930554   0.28307012
840.00   0.36093800   0.28407917
841.00   0.35256075   0.28509060
842.00   0.34417379   0.28610441
843.00   0.33577712   0.28712061
844.00   0.32737074   0.28813919
845.00   0.31895465   0.28916016
846.00   0.31052886   0.29018353
847.00   0.30209336   0.29120930
848.00   0.29364815   0.29223746
849.00   0.28519324   0.29326802
850.00   0.27672862   0.29430099
851.00   0.26825431   0.29533636
852.00   0.25977029   0.29637415
853.00   0.25127657   0.29741434
854.00   0.24277314   0.29845696
855.00   0.23426002   0.29950198
856.00   0.22573721   0.30054943
857.00   0.21720469   0.30159931
858.00   0.20866248   0.30265160
859.00   0.20011057   0.30370633
860.00   0.19154897   0.30476349
861.00   0.18297767   0.30582308
862.00   0.17439668   0.30688511
863.00   0.16580600   0.30794957
864.00   0.15720563   0.30901648
865.00   0.14859557   0.31008584
866.00   0.13997581   0.31115764
867.00   0.13134638   0.31223189
868.00   0.12270725   0.31330859
869.00   0.11405844   0.31438775
870.00   0.10539994   0.31546937
871.00   0.09673176   0.31655345
872.00   0.08805389   0.31763999
873.00   0.07936634   0.31872900
874.00   0.07066911   0.31982047
875.00   0.06196220   0.32091442
876.00   0.05324561   0.32201084
877.00   0.04451934   0.32310974
878.00   0.03578339   0.32421112
879.00   0.02703777   0.32531499
880.00   0.01828247   0.32642133
881.00   0.00951749   0.32753017
882.00   0.00074284   0.32864149
883.00  -0.00804148   0.32975531
884.00  -0.01683548   0.33087163
885.00  -0.02563914   0.33199044
886.00  -0.03445248   0.33311176
887.00  -0.04327549   0.33423557
888.00  -0.05210816   0.33536190
889.00  -0.06095051   0.33649073
890.00  -0.06980251   0.33762208
891.00  -0.07866419   0.33875594
892.00  -0.08753553   0.33989232
893.00  -0.09641653   0.34103122
894.00  -0.10530720   0.34217264
895.00  -0.11420753   0.34331659
896.00  -0.12311752   0.34446307
897.00  -0.13203716   0.34561207
898.00  -0.14096647   0.34676361
899.00  -0.14990544   0.34791769
900.00  -0.15885406   0.34907430
901.00  -0.16781234   0.35023346
902.00  -0.17678027   0.35139516
903.00  -0.18575786   0.35255941
904.00  -0.19474510   0.35372621
905.00  -0.20374200   0.35489556
906.00  -0.21274854   0.35606746
907.00  -0.22176474   0.35724192
908.00  -0.23079058   0.35841895
909.00  -0.23982608   0.35959853
910.00  -0.24887122   0.36078069
911.00  -0.25792600   0.36196541
912.00  -0.26699044   0.36315270
913.00  -0.27606451   0.36434256
914.00  -0.28514823   0.36553501
915.00  -0.29424160   0.36673003
916.00  -0.30334460   0.36792763
917.00  -0.31245725   0.36912782
918.00  -0.32157953   0.37033059
919.00  -0.33071146   0.37153596
920.00  -0.33985302   0.37274392
921.00  -0.34900422   0.37395447
922.00  -0.35816505   0.37516762
923.00  -0.36733552   0.37638337
924.00  -0.37651562   0.37760172
925.00  -0.38570536   0.37882268
926.00  -0.39490472   0.38004625
927.00  -0.40411372   0.38127243
928.00  -0.41333235   0.38250123
929.00  -0.42256061   0.38373264
930.00  -0.43179849   0.38496667
931.00  -0.44104600   0.38620332
932.00  -0.45030314   0.38744260
933.00  -0.45956990   0.38868450
934.00  -0.46884629   0.38992903
935.00  -0.47813230   0.39117620
936.00  -0.48742793   0.39242600
937.00  -0.49673318   0.39367844
938.00  -0.50604805   0.39493352
939.00  -0.51537254   0.39619125
940.00  -0.52470665   0.39745162
941.00  -0.53405038   0.39871464
942.00  -0.54340372   0.39998031
943.00  -0.55276667   0.40124863
944.00  -0.56213924   0.40251961
945.00  -0.57152143   0.40379325
946.00  -0.58091322   0.40506956
947.00  -0.59031463   0.40634852
948.00  -0.59972564   0.40763016
949.00  -0.60914627   0.40891446
950.00  -0.61857650   0.41020144
951.00  -0.62801634   0.41149109
952.00  -0.63746579   0.41278342
953.00  -0.64692484   0.41407843
954.00  -0.65639349   0.41537613
955.00  -0.66587175   0.41667651
956.00  -0.67535961   0.41797958
957.00  -0.68485707   0.41928534
958.00  -0.69436413   0.42059379
959.00  -0.70388079   0.42190494
960.00  -0.71340704   0.42321879
961.00  -0.72294290   0.42453534
962.00  -0.73248835   0.42585460
963.00  -0.74204339   0.42717656
964.00  -0.75160803   0.42850124
965.00  -0.76118226   0.42982862
966.00  -0.77076608   0.43115872
967.00  -0.78035949   0.43249154
968.00  -0.78996249   0.43382708
969.00  -0.79957508   0.43516535
970.00  -0.80919726   0.43650633
971.00  -0.81882903   0.43785005
972.00  -0.82847038   0.43919650
973.00  -0.83812131   0.44054568
974.00  -0.84778183   0.44189760
975.00  -0.85745193   0.44325226
976.00  -0.86713161   0.44460966
977.00  -0.87682087   0.44596980
978.00  -0.88651971   0.44733269
979.00  -0.89622813   0.44869833
980.00  -0.90594613   0.45006673
981.00  -0.91567370   0.45143788
982.00  -0.92541085   0.45281178
983.00  -0.93515757   0.45418845
984.00  -0.94491387   0.45556788
985.00  -0.95467974   0.45695007
986.00  -0.96445518   0.45833503
987.00  -0.97424018   0.45972277
988.00  -0.98403476   0.46111327
989.00  -0.99383891   0.46250656
990.00  -1.00365262   0.46390262
991.00  -1.01347590   0.46530146
992.00  -1.02330874   0.46670309
993.00  -1.03315115   0.46810751
994.00  -1.04300311   0.46951471
995.00  -1.05286465   0.47092470
996.00  -1.06273574   0.47233750
997.00  -1.07261639   0.47375308
998.00  -1.08250660   0.47517147
999.00  -1.09240636   0.47659266
1000.00  -1.10231568   0.47801666
1001.00  -1.11223456   0.47944346
1002.00  -1.12216299   0.48087307
1003.00  -1.13210098   0.48230550
1004.00  -1.14204852   0.48374074
1005.00  -1.15200561   0.48517880
1006.00  -1.16197224   0.48661969
1007.00  -1.17194843   0.48806339
1008.00  -1.18193417   0.48950992
1009.00  -1.19192945   0.49095928
1010.00  -1.20193427   0.49241148
1011.00  -1.21194865   0.49386650
1012.00  -1.22197256   0.49532437
1013.00  -1.23200602   0.49678507
1014.00  -1.24204902   0.49824862
1015.00  -1.25210156   0.49971501
1016.00  -1.26216364   0.50118424
1017.00  -1.27223526   0.50265633
1018.00  -1.28231641   0.50413127
1019.00  -1.29240710   0.50560907
1020.00  -1.30250733   0.50708972
1021.00  -1.31261709   0.50857323
1022.00  -1.32273638   0.51005961
1023.00  -1.33286520   0.51154885
1024.00  -1.34300356   0.51304096
1025.00  -1.35315144   0.51453595
1026.00  -1.36330886   0.51603380
1027.00  -1.37347580   0.51753453
1028.00  -1.38365226   0.51903814
1029.00  -1.39383826   0.52054464
1030.00  -1.40403377   0.52205401
1031.00  -1.41423881   0.52356628
1032.00  -1.42445337   0.52508143
1033.00  -1.43467745   0.52659947
1034.00  -1.44491106   0.52812041
1035.00  -1.45515418   0.52964425
1036.00  -1.46540682   0.53117099
1037.00  -1.47566897   0.53270063
1038.00  -1.48594064   0.53423317
1039.00  -1.49622183   0.53576862
1040.00  -1.50651253   0.53730699
1041.00  -1.51681274   0.53884826
1042.00  -1.52712246   0.54039245
1043.00  -1.53744169   0.54193956
1044.00  -1.54777043   0.54348959
1045.00  -1.55810868   0.54504254
1046.00  -1.56845643   0.54659842
1047.00  -1.57881369   0.54815723
1048.00  -1.58918046   0.54971897
1049.00  -1.59955673   0.55128364
1050.00  -1.60994250   0.55285125
1051.00  -1.62033777   0.55442180
1052.00  -1.63074254   0.55599529
1053.00  -1.64115682   0.55757173
1054.00  -1.65158058   0.55915111
1055.00  -1.66201385   0.56073344
1056.00  -1.67245661   0.56231873
1057.00  -1.68290887   0.56390697
1058.00  -1.69337062   0.56549816
1059.00  -1.70384186   0.56709232
1060.00  -1.71432259   0.56868944
1061.00  -1.72481282   0.57028952
1062.00  -1.73531253   0.57189257
1063.00  -1.74582173   0.57349860
1064.00  -1.75634042   0.57510759
1065.00  -1.76686859   0.57671956
1066.00  -1.77740625   0.57833451
1067.00  -1.78795339   0.57995244
1068.00  -1.79851001   0.58157336
1069.00  -1.80907611   0.58319726
1070.00  -1.81965170   0.58482414
1071.00  -1.83023676   0.58645402
1072.00  -1.84083130   0.58808690
1073.00  -1.85143532   0.58972277
1074.00  -1.86204881   0.59136164
1075.00  -1.87267178   0.59300351
1076.00  -1.88330422   0.59464838
1077.00  -1.89394613   0.59629627
1078.00  -1.90459752   0.59794716
1079.00  -1.91525837   0.59960106
1080.00  -1.92592869   0.60125798
1081.00  -1.93660848   0.60291792
1082.00  -1.94729774   0.60458087
1083.00  -1.95799646   0.60624685
1084.00  -1.96870465   0.60791585
1085.00  -1.97942230   0.60958788
1086.00  -1.99014941   0.61126295
1087.00  -2.00088598   0.61294104
1088.00  -2.01163201   0.61462217
1089.00  -2.02238750   0.61630634
1090.00  -2.03315245   0.61799355
1091.00  -2.04392685   0.61968380
1092.00  -2.05471071   0.62137709
1093.00  -2.06550403   0.62307344
1094.00  -2.07630679   0.62477284
1095.00  -2.08711901   0.62647529
1096.00  -2.09794068   0.62818079
1097.00  -2.10877180   0.62988936
1098.00  -2.11961236   0.63160099
1099.00  -2.13046237   0.63331568
1100.00  -2.14132183   0.63503343
1101.00  -2.15219074   0.63675426
1102.00  -2.16306908   0.63847816
1103.00  -2.17395687   0.64020513
1104.00  -2.18485411   0.64193518
1105.00  -2.19576078   0.64366831
1106.00  -2.20667689   0.64540452
1107.00  -2.21760244   0.64714381
1108.00  -2.22853742   0.64888620
1109.00  -2.23948184   0.65063167
1110.00  -2.25043570   0.65238023
1111.00  -2.26139898   0.65413189
1112.00  -2.27237170   0.65588665
1113.00  -2.28335385   0.65764451
1114.00  -2.29434544   0.65940547
1115.00  -2.30534644   0.66116954
1116.00  -2.31635688   0.66293671
1117.00  -2.32737674   0.66470699
1118.00  -2.33840603   0.66648039
1119.00  -2.34944474   0.66825690
1120.00  -2.36049288   0.67003653
1121.00  -2.37155043   0.67181928
1122.00  -2.38261741   0.67360516
1123.00  -2.39369381   0.67539416
1124.00  -2.40477962   0.67718629
1125.00  -2.41587485   0.67898155
1126.00  -2.42697950   0.68077994
1127.00  -2.43809356   0.68258147
1128.00  -2.44921703   0.68438614
1129.00  -2.46034992   0.68619395
1130.00  -2.47149222   0.68800490
1131.00  -2.48264393   0.68981901
1132.00  -2.49380504   0.69163625
1133.00  -2.50497557   0.69345666
1134.00  -2.51615549   0.69528021
1135.00  -2.52734483   0.69710692
1136.00  -2.53854357   0.69893679
1137.00  -2.54975171   0.70076983
1138.00  -2.56096925   0.70260603
1139.00  -2.57219620   0.70444539
1140.00  -2.58343254   0.70628793
1141.00  -2.59467828   0.70813363
1142.00  -2.60593342   0.70998251
1143.00  -2.61719795   0.71183457
1144.00  -2.62847188   0.71368981
1145.00  -2.63975520   0.71554823
1146.00  -2.65104791   0.71740984
1147.00  -2.66235001   0.71927463
1148.00  -2.67366151   0.72114261
1149.00  -2.68498239   0.72301379
1150.00  -2.69631266   0.72488816
1151.00  -2.70765231   0.72676573
1152.00  -2.71900135   0.72864650
1153.00  -2.73035977   0.73053047
1154.00  -2.74172758   0.73241765
1155.00  -2.75310477   0.73430803
1156.00  -2.76449133   0.73620163
1157.00  -2.77588728   0.73809844
1158.00  -2.78729260   0.73999847
1159.00  -2.79870730   0.74190171
1160.00  -2.81013138   0.74380817
1161.00  -2.82156483   0.74571786
1162.00  -2.83300765   0.74763077
1163.00  -2.84445984   0.74954692
1164.00  -2.85592141   0.75146629
1165.00  -2.86739234   0.75338890
1166.00  -2.87887264   0.75531474
1167.00  -2.89036231   0.75724382
1168.00  -2.90186134   0.75917614
1169.00  -2.91336974   0.76111171
1170.00  -2.92488750   0.76305052
1171.00  -2.93641462   0.76499258
1172.00  -2.94795111   0.76693789
1173.00  -2.95949695   0.76888646
1174.00  -2.97105215   0.77083828
1175.00  -2.98261671   0.77279337
1176.00  -2.99419062   0.77475171
1177.00  -3.00577389   0.77671332
1178.00  -3.01736651   0.77867819
1179.00  -3.02896849   0.78064633
1180.00  -3.04057981   0.78261775
1181.00  -3.05220049   0.78459244
1182.00  -3.06383051   0.78657041
1183.00  -3.07546988   0.78855165
1184.00  -3.08711860   0.79053618
1185.00  -3.09877666   0.79252399
1186.00  -3.11044406   0.79451509
1187.00  -3.12212081   0.79650948
1188.00  -3.13380690   0.79850716
1189.00  -3.14550233   0.80050814
1190.00  -3.15720709   0.80251241
1191.00  -3.16892120   0.80451998
1192.00  -3.18064464   0.80653086
1193.00  -3.19237741   0.80854504
1194.00  -3.20411952   0.81056252
1195.00  -3.21587096   0.81258332
1196.00  -3.22763173   0.81460743
1197.00  -3.23940184   0.81663485
1198.00  -3.25118127   0.81866559
1199.00  -3.26297003   0.82069965
1200.00  -3.27476811   0.82273704
1201.00  -3.28657552   0.82477775
1202.00  -3.29839226   0.82682178
1203.00  -3.31021831   0.82886915
1204.00  -3.32205369   0.83091985
1205.00  -3.33389839   0.83297388
1206.00  -3.34575240   0.83503125
1207.00  -3.35761574   0.83709197
1208.00  -3.36948839   0.83915602
1209.00  -3.38137035   0.84122342
1210.00  -3.39326163   0.84329417
1211.00  -3.40516222   0.84536827
1212.00  -3.41707213   0.84744572
1213.00  -3.42899134   0.84952652
1214.00  -3.44091986   0.85161069
1215.00  -3.45285769   0.85369821
1216.00  -3.46480482   0.85578910
1217.00  -3.47676126   0.85788335
1218.00  -3.48872701   0.85998097
1219.00  -3.50070205   0.86208197
1220.00  -3.51268640   0.86418633
1221.00  -3.52468005   0.86629407
1222.00  -3.53668300   0.86840519
1223.00  -3.54869524   0.87051969
1224.00  -3.56071678   0.87263757
1225.00  -3.57274762   0.87475883
1226.00  -3.58478774   0.87688349
1227.00  -3.59683716   0.87901154
1228.00  -3.60889588   0.88114297
1229.00  -3.62096388   0.88327781
1230.00  -3.63304117   0.88541604
1231.00  -3.64512775   0.88755768
1232.00  -3.65722361   0.88970271
1233.00  -3.66932876   0.89185115
1234.00  -3.68144319   0.89400301
1235.00  -3.69356691   0.89615827
1236.00  -3.70569990   0.89831694
1237.00  -3.71784217   0.90047903
1238.00  -3.72999373   0.90264454
1239.00  -3.74215456   0.90481347
1240.00  -3.75432466   0.90698582
1241.00  -3.76650405   0.90916160
1242.00  -3.77869270   0.91134081
1243.00  -3.79089063   0.91352344
1244.00  -3.80309782   0.91570952
1245.00  -3.81531429   0.91789902
1246.00  -3.82754002   0.92009197
1247.00  -3.83977502   0.92228835
1248.00  -3.85201929   0.92448818
1249.00  -3.86427282   0.92669146
1250.00  -3.87653561   0.92889818
1251.00  -3.88880767   0.93110835
1252.00  -3.90108899   0.93332198
1253.00  -3.91337956   0.93553907
1254.00  -3.92567940   0.93775961
1255.00  -3.93798848   0.93998361
1256.00  -3.95030683   0.94221107
1257.00  -3.96263443   0.94444201
1258.00  -3.97497128   0.94667641
1259.00  -3.98731738   0.94891428
1260.00  -3.99967274   0.95115562
1261.00  -4.01203734   0.95340044
1262.00  -4.02441119   0.95564874
1263.00  -4.03679428   0.95790052
1264.00  -4.04918662   0.96015578
1265.00  -4.06158821   0.96241453
1266.00  -4.07399903   0.96467676
1267.00  -4.08641910   0.96694249
1268.00  -4.09884841   0.96921171
1269.00  -4.11128695   0.97148443
1270.00  -4.12373474   0.97376064
1271.00  -4.13619175   0.97604036
1272.00  -4.14865801   0.97832358
1273.00  -4.16113349   0.98061030
1274.00  -4.17361821   0.98290053
1275.00  -4.18611216   0.98519428
1276.00  -4.19861534   0.98749153
1277.00  -4.21112774   0.98979230
1278.00  -4.22364937   0.99209659
1279.00  -4.23618023   0.99440440
1280.00  -4.24872031   0.99671574
1281.00  -4.26126962   0.99903060
1282.00  -4.27382814   1.00134898
1283.00  -4.28639589   1.00367090
1284.00  -4.29897285   1.00599635
1285.00  -4.31155903   1.00832534
1286.00  -4.32415443   1.01065786
1287.00  -4.33675904   1.01299393
1288.00  -4.34937287   1.01533354
1289.00  -4.36199591   1.01767669
1290.00  -4.37462816   1.02002339
1291.00  -4.38726962   1.02237364
1292.00  -4.39992028   1.02472745
1293.00  -4.41258016   1.02708481
1294.00  -4.42524923   1.02944572
1295.00  -4.43792752   1.03181020
1296.00  -4.45061500   1.03417824
1297.00  -4.46331169   1.03654985
1298.00  -4.47601758   1.03892502
1299.00  -4.48873267   1.04130377
1300.00  -4.50145695   1.04368608
1301.00  -4.51419043   1.04607197
1302.00  -4.52693311   1.04846144
1303.00  -4.53968497   1.05085449
1304.00  -4.55244603   1.05325113
1305.00  -4.56521629   1.05565134
1306.00  -4.57799573   1.05805515
1307.00  -4.59078436   1.06046254
1308.00  -4.60358217   1.06287353
1309.00  -4.61638918   1.06528811
1310.00  -4.62920536   1.06770629
1311.00  -4.64203073   1.07012807
1312.00  -4.65486528   1.07255345
1313.00  -4.66770901   1.07498243
1314.00  -4.68056192   1.07741503
1315.00  -4.69342401   1.07985123
1316.00  -4.70629527   1.08229105
1317.00  -4.71917571   1.08473448
1318.00  -4.73206532   1.08718152
1319.00  -4.74496411   1.08963219
1320.00  -4.75787206   1.09208648
1321.00  -4.77078918   1.09454439
1322.00  -4.78371548   1.09700593
1323.00  -4.79665093   1.09947110
1324.00  -4.80959556   1.10193990
1325.00  -4.82254935   1.10441233
1326.00  -4.83551230   1.10688840
1327.00  -4.84848441   1.10936811
1328.00  -4.86146568   1.11185147
1329.00  -4.87445611   1.11433846
1330.00  -4.88745570   1.11682911
1331.00  -4.90046444   1.11932340
1332.00  -4.91348234   1.12182134
1333.00  -4.92650939   1.12432294
1334.00  -4.93954559   1.12682819
1335.00  -4.95259095   1.12933710
1336.00  -4.96564545   1.13184968
1337.00  -4.97870910   1.13436591
1338.00  -4.99178190   1.13688582
1339.00  -5.00486384   1.13940939
1340.00  -5.01795492   1.14193663
1341.00  -5.03105515   1.14446755
1342.00  -5.04416452   1.14700214
1343.00  -5.05728303   1.14954041
1344.00  -5.07041067   1.15208236
1345.00  -5.08354745   1.15462800
1346.00  -5.09669337   1.15717732
1347.00  -5.10984842   1.15973033
1348.00  -5.12301261   1.16228703
1349.00  -5.13618593   1.16484742
1350.00  -5.14936837   1.16741151
1351.00  -5.16255995   1.16997929
1352.00  -5.17576065   1.17255078
1353.00  -5.18897047   1.17512597
1354.00  -5.20218943   1.17770486
1355.00  -5.21541750   1.18028746
1356.00  -5.22865470   1.18287377
1357.00  -5.24190102   1.18546380
1358.00  -5.25515645   1.18805754
1359.00  -5.26842100   1.19065499
1360.00  -5.28169467   1.19325617
1361.00  -5.29497746   1.19586107
1362.00  -5.30826936   1.19846969
1363.00  -5.32157036   1.20108204
1364.00  -5.33488049   1.20369812
1365.00  -5.34819971   1.20631794
1366.00  -5.36152805   1.20894148
1367.00  -5.37486550   1.21156877
1368.00  -5.38821204   1.21419979
1369.00  -5.40156770   1.21683455
1370.00  -5.41493245   1.21947306
1371.00  -5.42830631   1.22211532
1372.00  -5.44168926   1.22476132
1373.00  -5.45508131   1.22741108
1374.00  -5.46848246   1.23006458
1375.00  -5.48189271   1.23272185
1376.00  -5.49531205   1.23538287
1377.00  -5.50874048   1.23804766
1378.00  -5.52217800   1.24071621
1379.00  -5.53562461   1.24338852
1380.00  -5.54908031   1.24606461
1381.00  -5.56254510   1.24874446
1382.00  -5.57601898   1.25142809
1383.00  -5.58950193   1.25411549
1384.00  -5.60299397   1.25680667
1385.00  -5.61649509   1.25950163
1386.00  -5.63000530   1.26220038
1387.00  -5.64352457   1.26490291
1388.00  -5.65705293   1.26760923
1389.00  -5.67059036   1.27031933
1390.00  -5.68413687   1.27303323
1391.00  -5.69769245   1.27575093
1392.00  -5.71125710   1.27847242
1393.00  -5.72483082   1.28119771
1394.00  -5.73841361   1.28392681
1395.00  -5.75200547   1.28665971
1396.00  -5.76560639   1.28939641
1397.00  -5.77921638   1.29213693
1398.00  -5.79283543   1.29488126
1399.00  -5.80646354   1.29762940
1400.00  -5.82010071   1.30038136
1401.00  -5.83374694   1.30313713
1402.00  -5.84740223   1.30589673
1403.00  -5.86106658   1.30866016
1404.00  -5.87473997   1.31142740
1405.00  -5.88842243   1.31419848
1406.00  -5.90211393   1.31697339
1407.00  -5.91581448   1.31975213
1408.00  -5.92952408   1.32253471
1409.00  -5.94324273   1.32532113
1410.00  -5.95697043   1.32811139
1411.00  -5.97070717   1.33090549
1412.00  -5.98445295   1.33370343
1413.00  -5.99820778   1.33650523
1414.00  -6.01197164   1.33931087
1415.00  -6.02574455   1.34212037
1416.00  -6.03952649   1.34493372
1417.00  -6.05331747   1.34775093
1418.00  -6.06711748   1.35057200
1419.00  -6.08092652   1.35339693
1420.00  -6.09474460   1.35622573
1421.00  -6.10857171   1.35905839
1422.00  -6.12240784   1.36189493
1423.00  -6.13625300   1.36473533
1424.00  -6.15010719   1.36757961
1425.00  -6.16397041   1.37042777
1426.00  -6.17784264   1.37327980
1427.00  -6.19172390   1.37613572
1428.00  -6.20561418   1.37899552
1429.00  -6.21951348   1.38185920
1430.00  -6.23342179   1.38472678
1431.00  -6.24733912   1.38759825
1432.00  -6.26126547   1.39047361
1433.00  -6.27520082   1.39335286
1434.00  -6.28914519   1.39623601
1435.00  -6.30309857   1.39912307
1436.00  -6.31706096   1.40201403
1437.00  -6.33103236   1.40490889
1438.00  -6.34501276   1.40780766
1439.00  -6.35900216   1.41071034
1440.00  -6.37300057   1.41361693
1441.00  -6.38700798   1.41652744
1442.00  -6.40102439   1.41944186
1443.00  -6.41504980   1.42236021
1444.00  -6.42908420   1.42528247
1445.00  -6.44312760   1.42820866
1446.00  -6.45718000   1.43113878
1447.00  -6.47124139   1.43407283
1448.00  -6.48531177   1.43701081
1449.00  -6.49939113   1.43995272
1450.00  -6.51347949   1.44289857
1451.00  -6.52757683   1.44584835
1452.00  -6.54168316   1.44880208
1453.00  -6.55579848   1.45175975
1454.00  -6.56992277   1.45472137
1455.00  -6.58405605   1.45768693
1456.00  -6.59819831   1.46065645
1457.00  -6.61234954   1.46362992
1458.00  -6.62650975   1.46660734
1459.00  -6.64067894   1.46958872
1460.00  -6.65485710   1.47257406
1461.00  -6.66904423   1.47556337
1462.00  -6.68324033   1.47855664
1463.00  -6.69744540   1.48155387
1464.00  -6.71165944   1.48455508
1465.00  -6.72588245   1.48756025
1466.00  -6.74011442   1.49056940
1467.00  -6.75435536   1.49358253
1468.00  -6.76860525   1.49659964
1469.00  -6.78286411   1.49962072
1470.00  -6.79713193   1.50264580
1471.00  -6.81140870   1.50567485
1472.00  -6.82569443   1.50870790
1473.00  -6.83998911   1.51174493
1474.00  -6.85429275   1.51478596
1475.00  -6.86860534   1.51783099
1476.00  -6.88292688   1.52088001
1477.00  -6.89725737   1.52393303
1478.00  -6.91159680   1.52699006
1479.00  -6.92594518   1.53005109
1480.00  -6.94030251   1.53311612
1481.00  -6.95466878   1.53618517
1482.00  -6.96904399   1.53925823
1483.00  -6.98342814   1.54233530
1484.00  -6.99782122   1.54541639
1485.00  -7.01222325   1.54850150
1486.00  -7.02663421   1.55159063
1487.00  -7.04105410   1.55468378
1488.00  -7.05548293   1.55778096
1489.00  -7.06992068   1.56088217
1490.00  -7.08436737   1.56398741
1491.00  -7.09882298   1.56709668
1492.00  -7.11328752   1.57020998
1493.00  -7.12776099   1.57332733
1494.00  -7.14224338   1.57644871
1495.00  -7.15673469   1.57957414
1496.00  -7.17123492   1.58270361
1497.00  -7.18574407   1.58583713
1498.00  -7.20026214   1.58897470
1499.00  -7.21478912   1.59211632
1500.00  -7.22932502   1.59526199
1501.00  -7.24386983   1.59841172
1502.00  -7.25842355   1.60156551
1503.00  -7.27298618   1.60472337
1504.00  -7.28755772   1.60788528
1505.00  -7.30213817   1.61105126
1506.00  -7.31672752   1.61422131
1507.00  -7.33132578   1.61739543
1508.00  -7.34593294   1.62057362
1509.00  -7.36054900   1.62375589
1510.00  -7.37517396   1.62694223
1511.00  -7.38980782   1.63013265
1512.00  -7.40445057   1.63332716
1513.00  -7.41910222   1.63652575
1514.00  -7.43376276   1.63972843
1515.00  -7.44843220   1.64293520
1516.00  -7.46311052   1.64614606
1517.00  -7.47779774   1.64936101
1518.00  -7.49249384   1.65258006
1519.00  -7.50719882   1.65580321
1520.00  -7.52191269   1.65903045
1521.00  -7.53663545   1.66226180
1522.00  -7.55136708   1.66549726
1523.00  -7.56610760   1.66873683
1524.00  -7.58085699   1.67198050
1525.00  -7.59561526   1.67522829
1526.00  -7.61038241   1.67848019
1527.00  -7.62515843   1.68173621
1528.00  -7.63994332   1.68499635
1529.00  -7.65473708   1.68826061
1530.00  -7.66953971   1.69152899
1531.00  -7.68435121   1.69480150
1532.00  -7.69917158   1.69807814
1533.00  -7.71400081   1.70135891
1534.00  -7.72883890   1.70464382
1535.00  -7.74368585   1.70793286
1536.00  -7.75854167   1.71122603
1537.00  -7.77340634   1.71452335
1538.00  -7.78827987   1.71782481
1539.00  -7.80316225   1.72113042
1540.00  -7.81805349   1.72444017
1541.00  -7.83295358   1.72775407
1542.00  -7.84786253   1.73107213
1543.00  -7.86278032   1.73439433
1544.00  -7.87770696   1.73772070
1545.00  -7.89264244   1.74105122
1546.00  -7.90758677   1.74438591
1547.00  -7.92253995   1.74772475
1548.00  -7.93750196   1.75106777
1549.00  -7.95247282   1.75441495
1550.00  -7.96745251   1.75776630
1551.00  -7.98244104   1.76112183
1552.00  -7.99743841   1.76448153
1553.00  -8.01244461   1.76784540
1554.00  -8.02745964   1.77121346
1555.00  -8.04248351   1.77458570
1556.00  -8.05751620   1.77796212
1557.00  -8.07255772   1.78134273
1558.00  -8.08760807   1.78472753
1559.00  -8.10266724   1.78811652
1560.00  -8.11773524   1.79150970
1561.00  -8.13281205   1.79490708
1562.00  -8.14789769   1.79830865
1563.00  -8.16299214   1.80171443
1564.00  -8.17809542   1.80512441
1565.00  -8.19320750   1.80853859
1566.00  -8.20832841   1.81195698
1567.00  -8.22345812   1.81537958
1568.00  -8.23859665   1.81880640
1569.00  -8.25374398   1.82223742
1570.00  -8.26890012   1.82567266
1571.00  -8.28406507   1.82911212
1572.00  -8.29923882   1.83255581
1573.00  -8.31442138   1.83600371
1574.00  -8.32961273   1.83945584
1575.00  -8.34481289   1.84291220
1576.00  -8.36002185   1.84637279
1577.00  -8.37523960   1.84983761
1578.00  -8.39046615   1.85330666
1579.00  -8.40570149   1.85677996
1580.00  -8.42094562   1.86025749
1581.00  -8.43619854   1.86373926
1582.00  -8.45146026   1.86722528
1583.00  -8.46673076   1.87071554
1584.00  -8.48201004   1.87421005
1585.00  -8.49729811   1.87770881
1586.00  -8.51259497   1.88121183
1587.00  -8.52790060   1.88471910
1588.00  -8.54321501   1.88823063
1589.00  -8.55853821   1.89174641
1590.00  -8.57387018   1.89526646
1591.00  -8.58921092   1.89879078
1592.00  -8.60456044   1.90231936
1593.00  -8.61991872   1.90585221
1594.00  -8.63528578   1.90938933
1595.00  -8.65066161   1.91293072
1596.00  -8.66604620   1.91647639
1597.00  -8.68143956   1.92002634
1598.00  -8.69684169   1.92358056
1599.00  -8.71225257   1.92713907
1600.00  -8.72767222   1.93070187
1601.00  -8.74310063   1.93426895
1602.00  -8.75853779   1.93784032
1603.00  -8.77398371   1.94141598
1604.00  -8.78943839   1.94499594
1605.00  -8.80490181   1.94858019
1606.00  -8.82037399   1.95216874
1607.00  -8.83585492   1.95576160
1608.00  -8.85134460   1.95935875
1609.00  -8.86684302   1.96296021
1610.00  -8.88235019   1.96656598
1611.00  -8.89786610   1.97017605
1612.00  -8.91339075   1.97379044
1613.00  -8.92892415   1.97740915
1614.00  -8.94446628   1.98103217
1615.00  -8.96001715   1.98465950
1616.00  -8.97557675   1.98829116
1617.00  -8.99114509   1.99192715
1618.00  -9.00672216   1.99556745
1619.00  -9.02230796   1.99921209
1620.00  -9.03790249   2.00286106
1621.00  -9.05350575   2.00651435
1622.00  -9.06911774   2.01017199
1623.00  -9.08473844   2.01383396
1624.00  -9.10036788   2.01750027
1625.00  -9.11600603   2.02117092
1626.00  -9.13165290   2.02484591
1627.00  -9.14730849   2.02852525
1628.00  -9.16297280   2.03220894
1629.00  -9.17864582   2.03589697
1630.00  -9.19432755   2.03958936
1631.00  -9.21001800   2.04328611
1632.00  -9.22571715   2.04698721
1633.00  -9.24142502   2.05069267
1634.00  -9.25714159   2.05440250
1635.00  -9.27286686   2.05811668
1636.00  -9.28860084   2.06183524
1637.00  -9.30434352   2.06555816
1638.00  -9.32009491   2.06928545
1639.00  -9.33585499   2.07301712
1640.00  -9.35162377   2.07675316
1641.00  -9.36740124   2.08049357
1642.00  -9.38318741   2.08423837
1643.00  -9.39898227   2.08798755
1644.00  -9.41478582   2.09174111
1645.00  -9.43059806   2.09549906
1646.00  -9.44641898   2.09926139
1647.00  -9.46224860   2.10302812
1648.00  -9.47808689   2.10679924
1649.00  -9.49393387   2.11057476
1650.00  -9.50978953   2.11435467
1651.00  -9.52565388   2.11813898
1652.00  -9.54152689   2.12192770
1653.00  -9.55740859   2.12572082
1654.00  -9.57329896   2.12951834
1655.00  -9.58919800   2.13332028
1656.00  -9.60510571   2.13712662
1657.00  -9.62102210   2.14093738
1658.00  -9.63694715   2.14475255
1659.00  -9.65288087   2.14857214
1660.00  -9.66882325   2.15239615
1661.00  -9.68477429   2.15622458
1662.00  -9.70073400   2.16005744
1663.00  -9.71670237   2.16389472
1664.00  -9.73267940   2.16773643
1665.00  -9.74866508   2.17158258
1666.00  -9.76465942   2.17543315
1667.00  -9.78066241   2.17928816
1668.00  -9.79667405   2.18314761
1669.00  -9.81269435   2.18701150
1670.00  -9.82872329   2.19087983
1671.00  -9.84476088   2.19475260
1672.00  -9.86080712   2.19862982
1673.00  -9.87686199   2.20251149
1674.00  -9.89292552   2.20639761
1675.00  -9.90899768   2.21028818
1676.00  -9.92507848   2.21418321
1677.00  -9.94116792   2.21808270
1678.00  -9.95726599   2.22198664
1679.00  -9.97337270   2.22589505
1680.00  -9.98948804   2.22980792
1681.00 -10.00561201   2.23372526
1682.00 -10.02174461   2.23764706
1683.00 -10.03788583   2.24157334
1684.00 -10.05403569   2.24550409
1685.00 -10.07019416   2.24943931
1686.00 -10.08636126   2.25337902
1687.00 -10.10253698   2.25732320
1688.00 -10.11872132   2.26127186
1689.00 -10.13491428   2.26522501
1690.00 -10.15111585   2.26918264
1691.00 -10.16732604   2.27314477
1692.00 -10.18354484   2.27711138
1693.00 -10.19977225   2.28108248
1694.00 -10.21600827   2.28505808
1695.00 -10.23225290   2.28903818
1696.00 -10.24850614   2.29302278
1697.00 -10.26476797   2.29701188
1698.00 -10.28103842   2.30100548
1699.00 -10.29731746   2.30500359
1700.00 -10.31360510   2.30900621
1701.00 -10.32990134   2.31301333
1702.00 -10.34620618   2.31702497
1703.00 -10.36251961   2.32104113
1704.00 -10.37884163   2.32506180
1705.00 -10.39517225   2.32908699
1706.00 -10.41151145   2.33311670
1707.00 -10.42785925   2.33715094
1708.00 -10.44421563   2.34118970
1709.00 -10.46058059   2.34523299
1710.00 -10.47695414   2.34928081
1711.00 -10.49333627   2.35333316
1712.00 -10.50972697   2.35739005
1713.00 -10.52612626   2.36145147
1714.00 -10.54253412   2.36551744
1715.00 -10.55895056   2.36958794
1716.00 -10.57537557   2.37366299
1717.00 -10.59180915   2.37774258
1718.00 -10.60825130   2.38182672
1719.00 -10.62470202   2.38591541
1720.00 -10.64116131   2.39000865
1721.00 -10.65762916   2.39410645
1722.00 -10.67410557   2.39820880
1723.00 -10.69059054   2.40231571
1724.00 -10.70708408   2.40642718
1725.00 -10.72358617   2.41054322
1726.00 -10.74009682   2.41466382
1727.00 -10.75661602   2.41878898
1728.00 -10.77314378   2.42291872
1729.00 -10.78968009   2.42705303
1730.00 -10.80622494   2.43119191
1731.00 -10.82277835   2.43533537
1732.00 -10.83934030   2.43948340
1733.00 -10.85591080   2.44363602
1734.00 -10.87248984   2.44779322
1735.00 -10.88907742   2.45195500
1736.00 -10.90567354   2.45612137
1737.00 -10.92227820   2.46029233
1738.00 -10.93889140   2.46446788
1739.00 -10.95551313   2.46864802
1740.00 -10.97214339   2.47283276
1741.00 -10.98878218   2.47702210
1742.00 -11.00542951   2.48121604
1743.00 -11.02208536   2.48541458
1744.00 -11.03874974   2.48961772
1745.00 -11.05542264   2.49382547
1746.00 -11.07210406   2.49803783
1747.00 -11.08879401   2.50225479
1748.00 -11.10549248   2.50647638
1749.00 -11.12219946   2.51070257
1750.00 -11.13891496   2.51493339
1751.00 -11.15563898   2.51916882
1752.00 -11.17237150   2.52340887
1753.00 -11.18911254   2.52765355
1754.00 -11.20586209   2.53190285
1755.00 -11.22262015   2.53615679
1756.00 -11.23938671   2.54041535
1757.00 -11.25616178   2.54467854
1758.00 -11.27294534   2.54894637
1759.00 -11.28973741   2.55321883
1760.00 -11.30653798   2.55749594
1761.00 -11.32334705   2.56177768
1762.00 -11.34016461   2.56606407
1763.00 -11.35699067   2.57035510
1764.00 -11.37382522   2.57465078
1765.00 -11.39066826   2.57895111
1766.00 -11.40751979   2.58325609
1767.00 -11.42437981   2.58756573
1768.00 -11.44124831   2.59188002
1769.00 -11.45812529   2.59619897
1770.00 -11.47501076   2.60052258
1771.00 -11.49190471   2.60485085
1772.00 -11.50880714   2.60918378
1773.00 -11.52571805   2.61352139
1774.00 -11.54263743   2.61786366
1775.00 -11.55956528   2.62221060
1776.00 -11.57650161   2.62656222
1777.00 -11.59344641   2.63091851
1778.00 -11.61039967   2.63527947
1779.00 -11.62736141   2.63964512
1780.00 -11.64433161   2.64401545
1781.00 -11.66131027   2.64839046
1782.00 -11.67829739   2.65277016
1783.00 -11.69529298   2.65715455
1784.00 -11.71229702   2.66154362
1785.00 -11.72930952   2.66593739
1786.00 -11.74633047   2.67033586
1787.00 -11.76335988   2.67473902
1788.00 -11.78039774   2.67914687
1789.00 -11.79744405   2.68355943
1790.00 -11.81449881   2.68797670
1791.00 -11.83156201   2.69239866
1792.00 -11.84863366   2.69682534
1793.00 -11.86571376   2.70125672
1794.00 -11.88280229   2.70569282
1795.00 -11.89989926   2.71013363
1796.00 -11.91700467   2.71457915
1797.00 -11.93411852   2.71902939
1798.00 -11.95124080   2.72348436
1799.00 -11.96837152   2.72794404
1800.00 -11.98551067   2.73240845
1801.00 -12.00265824   2.73687758
1802.00 -12.01981424   2.74135145
1803.00 -12.03697867   2.74583004
1804.00 -12.05415153   2.75031337
1805.00 -12.07133280   2.75480143
1806.00 -12.08852250   2.75929423
1807.00 -12.10572061   2.76379176
1808.00 -12.12292714   2.76829404
1809.00 -12.14014209   2.77280106
1810.00 -12.15736545   2.77731283
1811.00 -12.17459723   2.78182934
1812.00 -12.19183741   2.78635061
1813.00 -12.20908601   2.79087662
1814.00 -12.22634301   2.79540739
1815.00 -12.24360841   2.79994292
1816.00 -12.26088222   2.80448320
1817.00 -12.27816443   2.80902825
1818.00 -12.29545504   2.81357805
1819.00 -12.31275405   2.81813262
1820.00 -12.33006146   2.82269196
1821.00 -12.34737726   2.82725606
1822.00 -12.36470145   2.83182494
1823.00 -12.38203403   2.83639859
1824.00 -12.39937501   2.84097701
1825.00 -12.41672437   2.84556021
1826.00 -12.43408212   2.85014819
1827.00 -12.45144825   2.85474095
1828.00 -12.46882277   2.85933850
1829.00 -12.48620566   2.86394083
1830.00 -12.50359694   2.86854794
1831.00 -12.52099659   2.87315985
1832.00 -12.53840462   2.87777655
1833.00 -12.55582102   2.88239804
1834.00 -12.57324580   2.88702433
1835.00 -12.59067894   2.89165542
1836.00 -12.60812046   2.89629130
1837.00 -12.62557034   2.90093199
1838.00 -12.64302858   2.90557748
1839.00 -12.66049519   2.91022778
1840.00 -12.67797017   2.91488289
1841.00 -12.69545350   2.91954280
1842.00 -12.71294519   2.92420754
1843.00 -12.73044523   2.92887708
1844.00 -12.74795364   2.93355144
1845.00 -12.76547039   2.93823062
1846.00 -12.78299550   2.94291462
1847.00 -12.80052895   2.94760345
1848.00 -12.81807075   2.95229710
1849.00 -12.83562090   2.95699557
1850.00 -12.85317940   2.96169888
1851.00 -12.87074623   2.96640702
1852.00 -12.88832141   2.97111999
1853.00 -12.90590493   2.97583780
1854.00 -12.92349678   2.98056044
1855.00 -12.94109697   2.98528792
1856.00 -12.95870549   2.99002025
1857.00 -12.97632234   2.99475742
1858.00 -12.99394753   2.99949943
1859.00 -13.01158104   3.00424630
1860.00 -13.02922288   3.00899801
1861.00 -13.04687304   3.01375458
1862.00 -13.06453153   3.01851600
1863.00 -13.08219834   3.02328227
1864.00 -13.09987347   3.02805341
1865.00 -13.11755692   3.03282940
1866.00 -13.13524868   3.03761026
1867.00 -13.15294876   3.04239598
1868.00 -13.17065715   3.04718657
1869.00 -13.18837385   3.05198203
1870.00 -13.20609886   3.05678236
1871.00 -13.22383218   3.06158756
1872.00 -13.24157380   3.06639763
1873.00 -13.25932373   3.07121259
1874.00 -13.27708195   3.07603242
1875.00 -13.29484848   3.08085713
1876.00 -13.31262331   3.08568673
1877.00 -13.33040644   3.09052121
1878.00 -13.34819785   3.09536058
1879.00 -13.36599757   3.10020484
1880.00 -13.38380557   3.10505398
1881.00 -13.40162186   3.10990803
1882.00 -13.41944645   3.11476697
1883.00 -13.43727931   3.11963080
1884.00 -13.45512046   3.12449954
1885.00 -13.47296990   3.12937318
1886.00 -13.49082761   3.13425172
1887.00 -13.50869361   3.13913516
1888.00 -13.52656788   3.14402352
1889.00 -13.54445043   3.14891678
1890.00 -13.56234125   3.15381496
1891.00 -13.58024034   3.15871805
1892.00 -13.59814770   3.16362606
1893.00 -13.61606333   3.16853898
1894.00 -13.63398723   3.17345683
1895.00 -13.65191939   3.17837959
1896.00 -13.66985982   3.18330729
1897.00 -13.68780850   3.18823990
1898.00 -13.70576545   3.19317745
1899.00 -13.72373065   3.19811993
1900.00 -13.74170411   3.20306734
1901.00 -13.75968582   3.20801968
1902.00 -13.77767579   3.21297696
1903.00 -13.79567401   3.21793918
1904.00 -13.81368047   3.22290634
1905.00 -13.83169518   3.22787844
1906.00 -13.84971814   3.23285548
1907.00 -13.86774934   3.23783748
1908.00 -13.88578878   3.24282442
1909.00 -13.90383646   3.24781631
1910.00 -13.92189238   3.25281316
1911.00 -13.93995654   3.25781496
1912.00 -13.95802893   3.26282171
1913.00 -13.97610955   3.26783343
1914.00 -13.99419840   3.27285011
1915.00 -14.01229548   3.27787175
1916.00 -14.03040079   3.28289835
1917.00 -14.04851433   3.28792992
1918.00 -14.06663609   3.29296646
1919.00 -14.08476607   3.29800798
1920.00 -14.10290427   3.30305446
1921.00 -14.12105069   3.30810592
1922.00 -14.13920532   3.31316236
1923.00 -14.15736817   3.31822378
1924.00 -14.17553923   3.32329018
1925.00 -14.19371851   3.32836156
1926.00 -14.21190599   3.33343792
1927.00 -14.23010168   3.33851928
1928.00 -14.24830558   3.34360562
1929.00 -14.26651768   3.34869695
1930.00 -14.28473798   3.35379328
1931.00 -14.30296648   3.35889461
1932.00 -14.32120318   3.36400093
1933.00 -14.33944808   3.36911225
1934.00 -14.35770117   3.37422857
1935.00 -14.37596245   3.37934989
1936.00 -14.39423193   3.38447622
1937.00 -14.41250960   3.38960756
1938.00 -14.43079545   3.39474391
1939.00 -14.44908949   3.39988527
1940.00 -14.46739171   3.40503164
1941.00 -14.48570211   3.41018303
1942.00 -14.50402070   3.41533943
1943.00 -14.52234746   3.42050086
1944.00 -14.54068240   3.42566730
1945.00 -14.55902552   3.43083877
1946.00 -14.57737681   3.43601527
1947.00 -14.59573627   3.44119679
1948.00 -14.61410390   3.44638335
1949.00 -14.63247969   3.45157493
1950.00 -14.65086365   3.45677155
1951.00 -14.66925578   3.46197320
1952.00 -14.68765607   3.46717989
1953.00 -14.70606452   3.47239162
1954.00 -14.72448113   3.47760839
1955.00 -14.74290589   3.48283021
1956.00 -14.76133881   3.48805707
1957.00 -14.77977988   3.49328898
1958.00 -14.79822911   3.49852594
1959.00 -14.81668648   3.50376795
1960.00 -14.83515200   3.50901501
1961.00 -14.85362567   3.51426713
1962.00 -14.87210748   3.51952431
1963.00 -14.89059743   3.52478654
1964.00 -14.90909552   3.53005384
1965.00 -14.92760176   3.53532620
1966.00 -14.94611612   3.54060363
1967.00 -14.96463863   3.54588612
1968.00 -14.98316926   3.55117369
1969.00 -15.00170803   3.55646632
1970.00 -15.02025493   3.56176403
1971.00 -15.03880995   3.56706681
1972.00 -15.05737310   3.57237468
1973.00 -15.07594438   3.57768762
1974.00 -15.09452377   3.58300564
1975.00 -15.11311129   3.58832874
1976.00 -15.13170692   3.59365694
1977.00 -15.15031067   3.59899021
1978.00 -15.16892254   3.60432858
1979.00 -15.18754252   3.60967204
1980.00 -15.20617061   3.61502059
1981.00 -15.22480681   3.62037424
1982.00 -15.24345112   3.62573299
1983.00 -15.26210353   3.63109683
1984.00 -15.28076404   3.63646577
1985.00 -15.29943266   3.64183982
1986.00 -15.31810938   3.64721898
1987.00 -15.33679420   3.65260324
1988.00 -15.35548711   3.65799261
1989.00 -15.37418811   3.66338709
1990.00 -15.39289721   3.66878668
1991.00 -15.41161440   3.67419139
1992.00 -15.43033968   3.67960122
1993.00 -15.44907305   3.68501616
1994.00 -15.46781450   3.69043623
1995.00 -15.48656404   3.69586141
1996.00 -15.50532166   3.70129173
1997.00 -15.52408735   3.70672717
1998.00 -15.54286113   3.71216774
1999.00 -15.56164298   3.71761344
2000.00 -15.58043290   3.72306427
