wavelength(nm)         real         imag
200.00   3.78876342   0.00212593
201.00   3.78764868   0.00215797
202.00   3.78652839   0.00219033
203.00   3.78540255   0.00222302
204.00   3.78427116   0.00225602
205.00   3.78313422   0.00228936
206.00   3.78199173   0.00232301
207.00   3.78084369   0.00235700
208.00   3.77969009   0.00239131
209.00   3.77853095   0.00242596
210.00   3.77736625   0.00246094
211.00   3.77619601   0.00249626
212.00   3.77502021   0.00253191
213.00   3.77383887   0.00256789
214.00   3.77265197   0.00260422
215.00   3.77145953   0.00264089
216.00   3.77026153   0.00267790
217.00   3.76905798   0.00271526
218.00   3.76784889   0.00275296
219.00   3.76663425   0.00279100
220.00   3.76541405   0.00282940
221.00   3.76418831   0.00286815
222.00   3.76295702   0.00290725
223.00   3.76172018   0.00294670
224.00   3.76047779   0.00298651
225.00   3.75922985   0.00302667
226.00   3.75797636   0.00306719
227.00   3.75671733   0.00310807
228.00   3.75545275   0.00314932
229.00   3.75418262   0.00319093
230.00   3.75290694   0.00323290
231.00   3.75162571   0.00327524
232.00   3.75033894   0.00331794
233.00   3.74904662   0.00336102
234.00   3.74774875   0.00340446
235.00   3.74644533   0.00344828
236.00   3.74513637   0.00349248
237.00   3.74382186   0.00353704
238.00   3.74250180   0.00358199
239.00   3.74117620   0.00362732
240.00   3.73984505   0.00367302
241.00   3.73850835   0.00371911
242.00   3.73716611   0.00376558
243.00   3.73581832   0.00381244
244.00   3.73446499   0.00385968
245.00   3.73310611   0.00390732
246.00   3.73174168   0.00395534
247.00   3.73037171   0.00400375
248.00   3.72899619   0.00405256
249.00   3.72761513   0.00410176
250.00   3.72622853   0.00415136
251.00   3.72483637   0.00420136
252.00   3.72343868   0.00425175
253.00   3.72203544   0.00430255
254.00   3.72062665   0.00435375
255.00   3.71921232   0.00440536
256.00   3.71779245   0.00445737
257.00   3.71636703   0.00450978
258.00   3.71493607   0.00456261
259.00   3.71349957   0.00461585
260.00   3.71205752   0.00466950
261.00   3.71060993   0.00472356
262.00   3.70915680   0.00477804
263.00   3.70769812   0.00483294
264.00   3.70623390   0.00488825
265.00   3.70476414   0.00494399
266.00   3.70328883   0.00500014
267.00   3.70180798   0.00505673
268.00   3.70032159   0.00511373
269.00   3.69882966   0.00517116
270.00   3.69733219   0.00522902
271.00   3.69582917   0.00528731
272.00   3.69432062   0.00534603
273.00   3.69280652   0.00540519
274.00   3.69128688   0.00546477
275.00   3.68976170   0.00552480
276.00   3.68823098   0.00558526
277.00   3.68669472   0.00564616
278.00   3.68515291   0.00570750
279.00   3.68360557   0.00576929
280.00   3.68205269   0.00583152
281.00   3.68049427   0.00589419
282.00   3.67893030   0.00595731
283.00   3.67736080   0.00602088
284.00   3.67578576   0.00608490
285.00   3.67420518   0.00614937
286.00   3.67261906   0.00621430
287.00   3.67102740   0.00627968
288.00   3.66943020   0.00634551
289.00   3.66782746   0.00641181
290.00   3.66621919   0.00647856
291.00   3.66460538   0.00654578
292.00   3.66298603   0.00661346
293.00   3.66136114   0.00668160
294.00   3.65973071   0.00675021
295.00   3.65809474   0.00681929
296.00   3.65645324   0.00688884
297.00   3.65480620   0.00695886
298.00   3.65315363   0.00702935
299.00   3.65149551   0.00710031
300.00   3.64983186   0.00717175
301.00   3.64816268   0.00724367
302.00   3.64648795   0.00731606
303.00   3.64480770   0.00738894
304.00   3.64312190   0.00746230
305.00   3.64143057   0.00753614
306.00   3.63973371   0.00761047
307.00   3.63803130   0.00768528
308.00   3.63632337   0.00776058
309.00   3.63460990   0.00783637
310.00   3.63289089   0.00791266
311.00   3.63116635   0.00798943
312.00   3.62943627   0.00806670
313.00   3.62770066   0.00814447
314.00   3.62595952   0.00822274
315.00   3.62421284   0.00830150
316.00   3.62246063   0.00838076
317.00   3.62070289   0.00846053
318.00   3.61893961   0.00854080
319.00   3.61717080   0.00862158
320.00   3.61539645   0.00870286
321.00   3.61361658   0.00878466
322.00   3.61183117   0.00886696
323.00   3.61004023   0.00894978
324.00   3.60824375   0.00903311
325.00   3.60644175   0.00911695
326.00   3.60463421   0.00920131
327.00   3.60282114   0.00928619
328.00   3.60100254   0.00937159
329.00   3.59917841   0.00945751
330.00   3.59734875   0.00954395
331.00   3.59551355   0.00963092
332.00   3.59367283   0.00971842
333.00   3.59182657   0.00980644
334.00   3.58997479   0.00989499
335.00   3.58811748   0.00998407
336.00   3.58625463   0.01007369
337.00   3.58438626   0.01016384
338.00   3.58251236   0.01025452
339.00   3.58063292   0.01034575
340.00   3.57874796   0.01043751
341.00   3.57685747   0.01052981
342.00   3.57496146   0.01062265
343.00   3.57305991   0.01071604
344.00   3.57115284   0.01080997
345.00   3.56924023   0.01090445
346.00   3.56732210   0.01099948
347.00   3.56539845   0.01109505
348.00   3.56346926   0.01119118
349.00   3.56153455   0.01128786
350.00   3.55959431   0.01138510
351.00   3.55764855   0.01148289
352.00   3.55569725   0.01158124
353.00   3.55374044   0.01168015
354.00   3.55177809   0.01177962
355.00   3.54981022   0.01187965
356.00   3.54783683   0.01198025
357.00   3.54585791   0.01208141
358.00   3.54387346   0.01218314
359.00   3.54188349   0.01228544
360.00   3.53988800   0.01238831
361.00   3.53788698   0.01249175
362.00   3.53588043   0.01259576
363.00   3.53386836   0.01270035
364.00   3.53185077   0.01280552
365.00   3.52982766   0.01291126
366.00   3.52779902   0.01301759
367.00   3.52576486   0.01312449
368.00   3.52372517   0.01323198
369.00   3.52167997   0.01334006
370.00   3.51962924   0.01344871
371.00   3.51757298   0.01355796
372.00   3.51551121   0.01366780
373.00   3.51344391   0.01377823
374.00   3.51137110   0.01388924
375.00   3.50929276   0.01400086
376.00   3.50720890   0.01411307
377.00   3.50511951   0.01422587
378.00   3.50302461   0.01433928
379.00   3.50092419   0.01445328
380.00   3.49881825   0.01456789
381.00   3.49670679   0.01468310
382.00   3.49458980   0.01479892
383.00   3.49246730   0.01491534
384.00   3.49033928   0.01503237
385.00   3.48820574   0.01515001
386.00   3.48606668   0.01526826
387.00   3.48392211   0.01538713
388.00   3.48177201   0.01550661
389.00   3.47961640   0.01562670
390.00   3.47745526   0.01574741
391.00   3.47528861   0.01586875
392.00   3.47311645   0.01599070
393.00   3.47093876   0.01611327
394.00   3.46875556   0.01623647
395.00   3.46656685   0.01636030
396.00   3.46437261   0.01648475
397.00   3.46217286   0.01660983
398.00   3.45996759   0.01673554
399.00   3.45775681   0.01686188
400.00   3.45554051   0.01698885
401.00   3.45331870   0.01711646
402.00   3.45109137   0.01724471
403.00   3.44885853   0.01737360
404.00   3.44662017   0.01750312
405.00   3.44437630   0.01763329
406.00   3.44212692   0.01776409
407.00   3.43987202   0.01789555
408.00   3.43761160   0.01802765
409.00   3.43534568   0.01816039
410.00   3.43307424   0.01829379
411.00   3.43079729   0.01842783
412.00   3.42851482   0.01856253
413.00   3.42622685   0.01869788
414.00   3.42393336   0.01883389
415.00   3.42163436   0.01897055
416.00   3.41932984   0.01910788
417.00   3.41701982   0.01924586
418.00   3.41470428   0.01938450
419.00   3.41238324   0.01952381
420.00   3.41005668   0.01966378
421.00   3.40772462   0.01980442
422.00   3.40538704   0.01994573
423.00   3.40304395   0.02008770
424.00   3.40069536   0.02023035
425.00   3.39834125   0.02037367
426.00   3.39598164   0.02051766
427.00   3.39361652   0.02066233
428.00   3.39124588   0.02080768
429.00   3.38886974   0.02095370
430.00   3.38648810   0.02110041
431.00   3.38410094   0.02124780
432.00   3.38170828   0.02139587
433.00   3.37931011   0.02154463
434.00   3.37690643   0.02169407
435.00   3.37449725   0.02184420
436.00   3.37208256   0.02199502
437.00   3.36966236   0.02214654
438.00   3.36723666   0.02229874
439.00   3.36480545   0.02245164
440.00   3.36236874   0.02260524
441.00   3.35992652   0.02275953
442.00   3.35747880   0.02291453
443.00   3.35502557   0.02307022
444.00   3.35256684   0.02322662
445.00   3.35010260   0.02338372
446.00   3.34763286   0.02354153
447.00   3.34515762   0.02370004
448.00   3.34267687   0.02385926
449.00   3.34019062   0.02401919
450.00   3.33769887   0.02417984
451.00   3.33520161   0.02434120
452.00   3.33269886   0.02450327
453.00   3.33019060   0.02466606
454.00   3.32767684   0.02482956
455.00   3.32515758   0.02499379
456.00   3.32263281   0.02515874
457.00   3.32010255   0.02532441
458.00   3.31756679   0.02549080
459.00   3.31502552   0.02565793
460.00   3.31247876   0.02582577
461.00   3.30992650   0.02599435
462.00   3.30736873   0.02616366
463.00   3.30480547   0.02633370
464.00   3.30223671   0.02650447
465.00   3.29966245   0.02667598
466.00   3.29708269   0.02684823
467.00   3.29449744   0.02702121
468.00   3.29190668   0.02719493
469.00   3.28931043   0.02736940
470.00   3.28670868   0.02754461
471.00   3.28410144   0.02772056
472.00   3.28148870   0.02789726
473.00   3.27887046   0.02807471
474.00   3.27624673   0.02825291
475.00   3.27361750   0.02843185
476.00   3.27098277   0.02861155
477.00   3.26834255   0.02879201
478.00   3.26569684   0.02897322
479.00   3.26304563   0.02915518
480.00   3.26038892   0.02933791
481.00   3.25772672   0.02952139
482.00   3.25505903   0.02970564
483.00   3.25238585   0.02989065
484.00   3.24970717   0.03007643
485.00   3.24702300   0.03026297
486.00   3.24433333   0.03045028
487.00   3.24163818   0.03063836
488.00   3.23893753   0.03082721
489.00   3.23623139   0.03101684
490.00   3.23351976   0.03120723
491.00   3.23080264   0.03139841
492.00   3.22808003   0.03159036
493.00   3.22535192   0.03178309
494.00   3.22261833   0.03197660
495.00   3.21987925   0.03217090
496.00   3.21713468   0.03236597
497.00   3.21438461   0.03256184
498.00   3.21162906   0.03275848
499.00   3.20886802   0.03295592
500.00   3.20610149   0.03315415
501.00   3.20332948   0.03335317
502.00   3.20055197   0.03355298
503.00   3.19776898   0.03375359
504.00   3.19498050   0.03395499
505.00   3.19218654   0.03415719
506.00   3.18938709   0.03436019
507.00   3.18658215   0.03456399
508.00   3.18377173   0.03476859
509.00   3.18095582   0.03497400
510.00   3.17813442   0.03518021
511.00   3.17530754   0.03538723
512.00   3.17247517   0.03559506
513.00   3.16963733   0.03580370
514.00   3.16679399   0.03601315
515.00   3.16394517   0.03622341
516.00   3.16109087   0.03643449
517.00   3.15823109   0.03664638
518.00   3.15536582   0.03685909
519.00   3.15249507   0.03707263
520.00   3.14961884   0.03728698
521.00   3.14673713   0.03750215
522.00   3.14384993   0.03771815
523.00   3.14095726   0.03793498
524.00   3.13805910   0.03815263
525.00   3.13515546   0.03837111
526.00   3.13224634   0.03859043
527.00   3.12933174   0.03881057
528.00   3.12641166   0.03903155
529.00   3.12348611   0.03925336
530.00   3.12055507   0.03947601
531.00   3.11761855   0.03969950
532.00   3.11467656   0.03992382
533.00   3.11172909   0.04014899
534.00   3.10877614   0.04037500
535.00   3.10581771   0.04060186
536.00   3.10285381   0.04082956
537.00   3.09988442   0.04105811
538.00   3.09690957   0.04128751
539.00   3.09392923   0.04151776
540.00   3.09094342   0.04174886
541.00   3.08795214   0.04198081
542.00   3.08495537   0.04221362
543.00   3.08195314   0.04244729
544.00   3.07894543   0.04268181
545.00   3.07593224   0.04291720
546.00   3.07291358   0.04315344
547.00   3.06988945   0.04339055
548.00   3.06685985   0.04362853
549.00   3.06382477   0.04386737
550.00   3.06078422   0.04410708
551.00   3.05773819   0.04434765
552.00   3.05468670   0.04458910
553.00   3.05162973   0.04483142
554.00   3.04856729   0.04507462
555.00   3.04549938   0.04531868
556.00   3.04242600   0.04556363
557.00   3.03934715   0.04580946
558.00   3.03626283   0.04605616
559.00   3.03317304   0.04630375
560.00   3.03007779   0.04655222
561.00   3.02697706   0.04680157
562.00   3.02387086   0.04705181
563.00   3.02075920   0.04730294
564.00   3.01764206   0.04755496
565.00   3.01451946   0.04780787
566.00   3.01139140   0.04806167
567.00   3.00825786   0.04831637
568.00   3.00511886   0.04857196
569.00   3.00197439   0.04882845
570.00   2.99882446   0.04908584
571.00   2.99566906   0.04934412
572.00   2.99250820   0.04960331
573.00   2.98934187   0.04986340
574.00   2.98617007   0.05012440
575.00   2.98299282   0.05038631
576.00   2.97981010   0.05064912
577.00   2.97662191   0.05091284
578.00   2.97342826   0.05117747
579.00   2.97022915   0.05144302
580.00   2.96702458   0.05170948
581.00   2.96381454   0.05197685
582.00   2.96059905   0.05224514
583.00   2.95737809   0.05251435
584.00   2.95415167   0.05278448
585.00   2.95091979   0.05305554
586.00   2.94768245   0.05332751
587.00   2.94443965   0.05360042
588.00   2.94119139   0.05387424
589.00   2.93793767   0.05414900
590.00   2.93467849   0.05442469
591.00   2.93141385   0.05470130
592.00   2.92814376   0.05497885
593.00   2.92486820   0.05525734
594.00   2.92158719   0.05553676
595.00   2.91830073   0.05581711
596.00   2.91500880   0.05609841
597.00   2.91171142   0.05638065
598.00   2.90840858   0.05666382
599.00   2.90510029   0.05694795
600.00   2.90178654   0.05723301
601.00   2.89846734   0.05751903
602.00   2.89514268   0.05780599
603.00   2.89181257   0.05809390
604.00   2.88847700   0.05838276
605.00   2.88513598   0.05867258
606.00   2.88178951   0.05896335
607.00   2.87843759   0.05925507
608.00   2.87508021   0.05954776
609.00   2.87171738   0.05984140
610.00   2.86834909   0.06013600
611.00   2.86497536   0.06043156
612.00   2.86159618   0.06072809
613.00   2.85821154   0.06102558
614.00   2.85482146   0.06132404
615.00   2.85142592   0.06162347
616.00   2.84802494   0.06192387
617.00   2.84461850   0.06222524
618.00   2.84120662   0.06252758
619.00   2.83778929   0.06283090
620.00   2.83436651   0.06313519
621.00   2.83093828   0.06344046
622.00   2.82750461   0.06374671
623.00   2.82406549   0.06405394
624.00   2.82062092   0.06436215
625.00   2.81717090   0.06467134
626.00   2.81371544   0.06498152
627.00   2.81025454   0.06529269
628.00   2.80678819   0.06560484
629.00   2.80331639   0.06591799
630.00   2.79983915   0.06623212
631.00   2.79635647   0.06654725
632.00   2.79286834   0.06686337
633.00   2.78937477   0.06718049
634.00   2.78587576   0.06749861
635.00   2.78237130   0.06781772
636.00   2.77886140   0.06813784
637.00   2.77534607   0.06845896
638.00   2.77182528   0.06878108
639.00   2.76829906   0.06910420
640.00   2.76476740   0.06942834
641.00   2.76123030   0.06975348
642.00   2.75768776   0.07007963
643.00   2.75413977   0.07040679
644.00   2.75058635   0.07073497
645.00   2.74702750   0.07106416
646.00   2.74346320   0.07139436
647.00   2.73989346   0.07172558
648.00   2.73631829   0.07205782
649.00   2.73273768   0.07239109
650.00   2.72915163   0.07272537
651.00   2.72556015   0.07306068
652.00   2.72196323   0.07339701
653.00   2.71836088   0.07373437
654.00   2.71475309   0.07407276
655.00   2.71113987   0.07441217
656.00   2.70752121   0.07475262
657.00   2.70389711   0.07509410
658.00   2.70026759   0.07543662
659.00   2.69663263   0.07578017
660.00   2.69299224   0.07612476
661.00   2.68934641   0.07647039
662.00   2.68569516   0.07681705
663.00   2.68203847   0.07716476
664.00   2.67837635   0.07751352
665.00   2.67470880   0.07786332
666.00   2.67103582   0.07821416
667.00   2.66735741   0.07856605
668.00   2.66367357   0.07891900
669.00   2.65998430   0.07927299
670.00   2.65628960   0.07962804
671.00   2.65258948   0.07998414
672.00   2.64888392   0.08034129
673.00   2.64517294   0.08069951
674.00   2.64145653   0.08105878
675.00   2.63773470   0.08141911
676.00   2.63400743   0.08178050
677.00   2.63027475   0.08214296
678.00   2.62653663   0.08250648
679.00   2.62279309   0.08287107
680.00   2.61904413   0.08323673
681.00   2.61528974   0.08360346
682.00   2.61152993   0.08397125
683.00   2.60776469   0.08434013
684.00   2.60399403   0.08471007
685.00   2.60021795   0.08508109
686.00   2.59643645   0.08545319
687.00   2.59264952   0.08582636
688.00   2.58885717   0.08620062
689.00   2.58505941   0.08657595
690.00   2.58125622   0.08695238
691.00   2.57744761   0.08732988
692.00   2.57363358   0.08770847
693.00   2.56981413   0.08808815
694.00   2.56598926   0.08846892
695.00   2.56215897   0.08885078
696.00   2.55832327   0.08923373
697.00   2.55448215   0.08961778
698.00   2.55063561   0.09000292
699.00   2.54678365   0.09038916
700.00   2.54292628   0.09077650
701.00   2.53906349   0.09116493
702.00   2.53519528   0.09155447
703.00   2.53132166   0.09194511
704.00   2.52744262   0.09233686
705.00   2.52355817   0.09272971
706.00   2.51966831   0.09312367
707.00   2.51577303   0.09351874
708.00   2.51187234   0.09391492
709.00   2.50796624   0.09431221
710.00   2.50405472   0.09471062
711.00   2.50013779   0.09511014
712.00   2.49621545   0.09551078
713.00   2.49228770   0.09591253
714.00   2.48835454   0.09631541
715.00   2.48441597   0.09671941
716.00   2.48047199   0.09712453
717.00   2.47652260   0.09753077
718.00   2.47256780   0.09793814
719.00   2.46860759   0.09834664
720.00   2.46464197   0.09875627
721.00   2.46067095   0.09916703
722.00   2.45669452   0.09957892
723.00   2.45271268   0.09999194
724.00   2.44872543   0.10040610
725.00   2.44473278   0.10082139
726.00   2.44073473   0.10123782
727.00   2.43673127   0.10165540
728.00   2.43272240   0.10207411
729.00   2.42870813   0.10249397
730.00   2.42468845   0.10291497
731.00   2.42066338   0.10333711
732.00   2.41663290   0.10376040
733.00   2.41259701   0.10418485
734.00   2.40855573   0.10461044
735.00   2.40450904   0.10503718
736.00   2.40045696   0.10546508
737.00   2.39639947   0.10589413
738.00   2.39233658   0.10632434
739.00   2.38826829   0.10675571
740.00   2.38419460   0.10718823
741.00   2.38011551   0.10762192
742.00   2.37603103   0.10805677
743.00   2.37194114   0.10849278
744.00   2.36784586   0.10892996
745.00   2.36374518   0.10936830
746.00   2.35963911   0.10980781
747.00   2.35552764   0.11024850
748.00   2.35141077   0.11069035
749.00   2.34728851   0.11113338
750.00   2.34316085   0.11157758
751.00   2.33902780   0.11202296
752.00   2.33488935   0.11246951
753.00   2.33074551   0.11291725
754.00   2.32659627   0.11336616
755.00   2.32244165   0.11381626
756.00   2.31828163   0.11426754
757.00   2.31411622   0.11472001
758.00   2.30994542   0.11517366
759.00   2.30576922   0.11562850
760.00   2.30158764   0.11608453
761.00   2.29740067   0.11654175
762.00   2.29320830   0.11700017
763.00   2.28901055   0.11745978
764.00   2.28480741   0.11792058
765.00   2.28059888   0.11838258
766.00   2.27638496   0.11884578
767.00   2.27216566   0.11931018
768.00   2.26794096   0.11977578
769.00   2.26371089   0.12024259
770.00   2.25947542   0.12071060
771.00   2.25523457   0.12117981
772.00   2.25098834   0.12165024
773.00   2.24673672   0.12212187
774.00   2.24247971   0.12259471
775.00   2.23821733   0.12306877
776.00   2.23394956   0.12354404
777.00   2.22967640   0.12402053
778.00   2.22539787   0.12449823
779.00   2.22111395   0.12497715
780.00   2.21682465   0.12545729
781.00   2.21252997   0.12593865
782.00   2.20822991   0.12642124
783.00   2.20392447   0.12690504
784.00   2.19961365   0.12739008
785.00   2.19529745   0.12787634
786.00   2.19097587   0.12836383
787.00   2.18664892   0.12885255
788.00   2.18231658   0.12934251
789.00   2.17797887   0.12983369
790.00   2.17363579   0.13032612
791.00   2.16928732   0.13081977
792.00   2.16493348   0.13131467
793.00   2.16057427   0.13181080
794.00   2.15620968   0.13230818
795.00   2.15183971   0.13280680
796.00   2.14746437   0.13330666
797.00   2.14308366   0.13380777
798.00   2.13869758   0.13431013
799.00   2.13430612   0.13481373
800.00   2.12990929   0.13531858
801.00   2.12550709   0.13582469
802.00   2.12109952   0.13633205
803.00   2.11668658   0.13684066
804.00   2.11226826   0.13735053
805.00   2.10784458   0.13786165
806.00   2.10341553   0.13837404
807.00   2.09898111   0.13888768
808.00   2.09454132   0.13940259
809.00   2.09009616   0.13991876
810.00   2.08564564   0.14043620
811.00   2.08118975   0.14095490
812.00   2.07672849   0.14147487
813.00   2.07226187   0.14199611
814.00   2.06778988   0.14251862
815.00   2.06331253   0.14304241
816.00   2.05882981   0.14356746
817.00   2.05434173   0.14409380
818.00   2.04984828   0.14462141
819.00   2.04534948   0.14515029
820.00   2.04084531   0.14568046
821.00   2.03633577   0.14621191
822.00   2.03182088   0.14674465
823.00   2.02730062   0.14727866
824.00   2.02277501   0.14781397
825.00   2.01824403   0.14835056
826.00   2.01370770   0.14888844
827.00   2.00916600   0.14942761
828.00   2.00461895   0.14996807
829.00   2.00006654   0.15050983
830.00   1.99550877   0.15105288
831.00   1.99094565   0.15159722
832.00   1.98637717   0.15214287
833.00   1.98180333   0.15268981
834.00   1.97722413   0.15323806
835.00   1.97263958   0.15378761
836.00   1.96804968   0.15433846
837.00   1.96345442   0.15489062
838.00   1.95885381   0.15544408
839.00   1.95424785   0.15599886
840.00   1.94963653   0.15655494
841.00   1.94501986   0.15711233
842.00   1.94039784   0.15767104
843.00   1.93577047   0.15823106
844.00   1.93113774   0.15879240
845.00   1.92649967   0.15935506
846.00   1.92185625   0.15991903
847.00   1.91720747   0.16048432
848.00   1.91255335   0.16105094
849.00   1.90789388   0.16161888
850.00   1.90322907   0.16218814
851.00   1.89855890   0.16275874
852.00   1.89388339   0.16333065
853.00   1.88920253   0.16390390
854.00   1.88451633   0.16447848
855.00   1.87982478   0.16505439
856.00   1.87512789   0.16563164
857.00   1.87042565   0.16621022
858.00   1.86571807   0.16679014
859.00   1.86100515   0.16737139
860.00   1.85628688   0.16795399
861.00   1.85156328   0.16853792
862.00   1.84683433   0.16912320
863.00   1.84210003   0.16970983
864.00   1.83736040   0.17029780
865.00   1.83261543   0.17088711
866.00   1.82786512   0.17147778
867.00   1.82310947   0.17206979
868.00   1.81834848   0.17266316
869.00   1.81358215   0.17325788
870.00   1.80881049   0.17385396
871.00   1.80403348   0.17445139
872.00   1.79925114   0.17505018
873.00   1.79446347   0.17565033
874.00   1.78967046   0.17625183
875.00   1.78487211   0.17685470
876.00   1.78006844   0.17745894
877.00   1.77525942   0.17806454
878.00   1.77044507   0.17867151
879.00   1.76562539   0.17927984
880.00   1.76080038   0.17988954
881.00   1.75597004   0.18050062
882.00   1.75113436   0.18111307
883.00   1.74629335   0.18172689
884.00   1.74144702   0.18234208
885.00   1.73659535   0.18295866
886.00   1.73173835   0.18357661
887.00   1.72687603   0.18419594
888.00   1.72200838   0.18481665
889.00   1.71713540   0.18543875
890.00   1.71225709   0.18606223
891.00   1.70737345   0.18668710
892.00   1.70248449   0.18731335
893.00   1.69759020   0.18794100
894.00   1.69269059   0.18857003
895.00   1.68778566   0.18920045
896.00   1.68287539   0.18983227
897.00   1.67795981   0.19046548
898.00   1.67303890   0.19110009
899.00   1.66811267   0.19173610
900.00   1.66318112   0.19237351
901.00   1.65824425   0.19301231
902.00   1.65330205   0.19365252
903.00   1.64835454   0.19429414
904.00   1.64340171   0.19493715
905.00   1.63844355   0.19558158
906.00   1.63348008   0.19622741
907.00   1.62851129   0.19687465
908.00   1.62353718   0.19752331
909.00   1.61855776   0.19817337
910.00   1.61357301   0.19882485
911.00   1.60858295   0.19947775
912.00   1.60358758   0.20013206
913.00   1.59858689   0.20078779
914.00   1.59358089   0.20144494
915.00   1.58856957   0.20210351
916.00   1.58355294   0.20276350
917.00   1.57853100   0.20342492
918.00   1.57350374   0.20408777
919.00   1.56847117   0.20475204
920.00   1.56343329   0.20541774
921.00   1.55839010   0.20608487
922.00   1.55334160   0.20675343
923.00   1.54828779   0.20742343
924.00   1.54322867   0.20809486
925.00   1.53816424   0.20876773
926.00   1.53309451   0.20944203
927.00   1.52801947   0.21011777
928.00   1.52293911   0.21079496
929.00   1.51785346   0.21147358
930.00   1.51276250   0.21215365
931.00   1.50766623   0.21283517
932.00   1.50256465   0.21351813
933.00   1.49745778   0.21420254
934.00   1.49234560   0.21488839
935.00   1.48722811   0.21557570
936.00   1.48210533   0.21626446
937.00   1.47697724   0.21695468
938.00   1.47184385   0.21764635
939.00   1.46670516   0.21833948
940.00   1.46156117   0.21903406
941.00   1.45641187   0.21973011
942.00   1.45125728   0.22042761
943.00   1.44609739   0.22112658
944.00   1.44093221   0.22182701
945.00   1.43576172   0.22252891
946.00   1.43058594   0.22323228
947.00   1.42540486   0.22393711
948.00   1.42021849   0.22464341
949.00   1.41502682   0.22535119
950.00   1.40982985   0.22606044
951.00   1.40462759   0.22677116
952.00   1.39942004   0.22748336
953.00   1.39420719   0.22819703
954.00   1.38898905   0.22891219
955.00   1.38376562   0.22962882
956.00   1.37853690   0.23034694
957.00   1.37330289   0.23106654
958.00   1.36806358   0.23178762
959.00   1.36281899   0.23251019
960.00   1.35756910   0.23323425
961.00   1.35231393   0.23395980
962.00   1.34705347   0.23468683
963.00   1.34178772   0.23541536
964.00   1.33651669   0.23614538
965.00   1.33124037   0.23687690
966.00   1.32595876   0.23760992
967.00   1.32067187   0.23834443
968.00   1.31537969   0.23908044
969.00   1.31008223   0.23981795
970.00   1.30477948   0.24055696
971.00   1.29947145   0.24129748
972.00   1.29415814   0.24203950
973.00   1.28883955   0.24278303
974.00   1.28351568   0.24352807
975.00   1.27818652   0.24427462
976.00   1.27285209   0.24502267
977.00   1.26751237   0.24577224
978.00   1.26216738   0.24652333
979.00   1.25681710   0.24727593
980.00   1.25146155   0.24803004
981.00   1.24610072   0.24878568
982.00   1.24073462   0.24954283
983.00   1.23536324   0.25030151
984.00   1.22998658   0.25106171
985.00   1.22460465   0.25182343
986.00   1.21921744   0.25258668
987.00   1.21382496   0.25335145
988.00   1.20842721   0.25411775
989.00   1.20302418   0.25488559
990.00   1.19761588   0.25565495
991.00   1.19220231   0.25642585
992.00   1.18678347   0.25719828
993.00   1.18135936   0.25797225
994.00   1.17592998   0.25874775
995.00   1.17049532   0.25952480
996.00   1.16505540   0.26030338
997.00   1.15961021   0.26108350
998.00   1.15415976   0.26186517
999.00   1.14870404   0.26264838
1000.00   1.14324305   0.26343314
1001.00   1.13777679   0.26421945
1002.00   1.13230527   0.26500730
1003.00   1.12682848   0.26579671
1004.00   1.12134643   0.26658766
1005.00   1.11585912   0.26738017
1006.00   1.11036655   0.26817424
1007.00   1.10486871   0.26896986
1008.00   1.09936561   0.26976704
1009.00   1.09385725   0.27056578
1010.00   1.08834362   0.27136607
1011.00   1.08282474   0.27216793
1012.00   1.07730060   0.27297136
1013.00   1.07177120   0.27377634
1014.00   1.06623654   0.27458290
1015.00   1.06069663   0.27539102
1016.00   1.05515145   0.27620071
1017.00   1.04960102   0.27701197
1018.00   1.04404534   0.27782481
1019.00   1.03848440   0.27863921
1020.00   1.03291820   0.27945520
1021.00   1.02734675   0.28027275
1022.00   1.02177005   0.28109189
1023.00   1.01618809   0.28191261
1024.00   1.01060088   0.28273490
1025.00   1.00500842   0.28355878
1026.00   0.99941071   0.28438425
1027.00   0.99380775   0.28521129
1028.00   0.98819954   0.28603993
1029.00   0.98258608   0.28687015
1030.00   0.97696737   0.28770196
1031.00   0.97134341   0.28853536
1032.00   0.96571420   0.28937036
1033.00   0.96007975   0.29020695
1034.00   0.95444005   0.29104513
1035.00   0.94879511   0.29188491
1036.00   0.94314492   0.29272629
1037.00   0.93748948   0.29356927
1038.00   0.93182881   0.29441385
1039.00   0.92616288   0.29526003
1040.00   0.92049172   0.29610782
1041.00   0.91481531   0.29695721
1042.00   0.90913367   0.29780820
1043.00   0.90344678   0.29866081
1044.00   0.89775465   0.29951503
1045.00   0.89205728   0.30037085
1046.00   0.88635467   0.30122829
1047.00   0.88064682   0.30208734
1048.00   0.87493374   0.30294801
1049.00   0.86921542   0.30381030
1050.00   0.86349186   0.30467420
1051.00   0.85776306   0.30553973
1052.00   0.85202903   0.30640687
1053.00   0.84628977   0.30727564
1054.00   0.84054527   0.30814603
1055.00   0.83479554   0.30901805
1056.00   0.82904057   0.30989169
1057.00   0.82328037   0.31076696
1058.00   0.81751494   0.31164386
1059.00   0.81174428   0.31252240
1060.00   0.80596839   0.31340256
1061.00   0.80018727   0.31428436
1062.00   0.79440092   0.31516780
1063.00   0.78860934   0.31605287
1064.00   0.78281253   0.31693958
1065.00   0.77701049   0.31782794
1066.00   0.77120323   0.31871793
1067.00   0.76539074   0.31960956
1068.00   0.75957303   0.32050284
1069.00   0.75375009   0.32139777
1070.00   0.74792193   0.32229434
1071.00   0.74208854   0.32319256
1072.00   0.73624993   0.32409243
1073.00   0.73040609   0.32499395
1074.00   0.72455704   0.32589713
1075.00   0.71870276   0.32680196
1076.00   0.71284327   0.32770844
1077.00   0.70697855   0.32861658
1078.00   0.70110861   0.32952638
1079.00   0.69523346   0.33043784
1080.00   0.68935308   0.33135096
1081.00   0.68346749   0.33226575
1082.00   0.67757668   0.33318220
1083.00   0.67168066   0.33410031
1084.00   0.66577942   0.33502009
1085.00   0.65987296   0.33594154
1086.00   0.65396129   0.33686466
1087.00   0.64804441   0.33778945
1088.00   0.64212231   0.33871592
1089.00   0.63619500   0.33964405
1090.00   0.63026248   0.34057387
1091.00   0.62432475   0.34150536
1092.00   0.61838180   0.34243853
1093.00   0.61243365   0.34337338
1094.00   0.60648029   0.34430991
1095.00   0.60052172   0.34524812
1096.00   0.59455794   0.34618802
1097.00   0.58858895   0.34712961
1098.00   0.58261476   0.34807288
1099.00   0.57663536   0.34901784
1100.00   0.57065075   0.34996449
1101.00   0.56466094   0.35091283
1102.00   0.55866592   0.35186286
1103.00   0.55266570   0.35281459
1104.00   0.54666028   0.35376801
1105.00   0.54064966   0.35472313
1106.00   0.53463383   0.35567995
1107.00   0.52861280   0.35663847
1108.00   0.52258657   0.35759869
1109.00   0.51655515   0.35856061
1110.00   0.51051852   0.35952424
1111.00   0.50447669   0.36048957
1112.00   0.49842967   0.36145661
1113.00   0.49237745   0.36242536
1114.00   0.48632003   0.36339582
1115.00   0.48025742   0.36436799
1116.00   0.47418961   0.36534187
1117.00   0.46811660   0.36631747
1118.00   0.46203840   0.36729478
1119.00   0.45595501   0.36827381
1120.00   0.44986643   0.36925456
1121.00   0.44377265   0.37023703
1122.00   0.43767368   0.37122121
1123.00   0.43156952   0.37220713
1124.00   0.42546017   0.37319476
1125.00   0.41934564   0.37418412
1126.00   0.41322591   0.37517521
1127.00   0.40710099   0.37616803
1128.00   0.40097089   0.37716257
1129.00   0.39483560   0.37815885
1130.00   0.38869512   0.37915686
1131.00   0.38254946   0.38015660
1132.00   0.37639861   0.38115808
1133.00   0.37024258   0.38216130
1134.00   0.36408136   0.38316625
1135.00   0.35791496   0.38417295
1136.00   0.35174338   0.38518138
1137.00   0.34556661   0.38619156
1138.00   0.33938467   0.38720348
1139.00   0.33319754   0.38821715
1140.00   0.32700524   0.38923256
1141.00   0.32080775   0.39024972
1142.00   0.31460509   0.39126863
1143.00   0.30839725   0.39228930
1144.00   0.30218423   0.39331171
1145.00   0.29596604   0.39433588
1146.00   0.28974267   0.39536180
1147.00   0.28351412   0.39638948
1148.00   0.27728040   0.39741892
1149.00   0.27104151   0.39845012
1150.00   0.26479744   0.39948308
1151.00   0.25854820   0.40051780
1152.00   0.25229379   0.40155429
1153.00   0.24603420   0.40259254
1154.00   0.23976945   0.40363255
1155.00   0.23349953   0.40467434
1156.00   0.22722443   0.40571789
1157.00   0.22094417   0.40676321
1158.00   0.21465874   0.40781031
1159.00   0.20836814   0.40885918
1160.00   0.20207238   0.40990983
1161.00   0.19577145   0.41096225
1162.00   0.18946535   0.41201645
1163.00   0.18315409   0.41307243
1164.00   0.17683767   0.41413018
1165.00   0.17051608   0.41518973
1166.00   0.16418933   0.41625105
1167.00   0.15785742   0.41731416
1168.00   0.15152035   0.41837905
1169.00   0.14517811   0.41944574
1170.00   0.13883072   0.42051421
1171.00   0.13247817   0.42158447
1172.00   0.12612046   0.42265653
1173.00   0.11975759   0.42373037
1174.00   0.11338956   0.42480602
1175.00   0.10701638   0.42588345
1176.00   0.10063804   0.42696269
1177.00   0.09425454   0.42804372
1178.00   0.08786589   0.42912656
1179.00   0.08147209   0.43021120
1180.00   0.07507313   0.43129764
1181.00   0.06866902   0.43238588
1182.00   0.06225976   0.43347593
1183.00   0.05584535   0.43456779
1184.00   0.04942579   0.43566145
1185.00   0.04300107   0.43675693
1186.00   0.03657121   0.43785421
1187.00   0.03013620   0.43895331
1188.00   0.02369604   0.44005423
1189.00   0.01725074   0.44115696
1190.00   0.01080029   0.44226151
1191.00   0.00434469   0.44336787
1192.00  -0.00211605   0.44447606
1193.00  -0.00858194   0.44558606
1194.00  -0.01505297   0.44669789
1195.00  -0.02152915   0.44781155
1196.00  -0.02801046   0.44892702
1197.00  -0.03449692   0.45004433
1198.00  -0.04098852   0.45116346
1199.00  -0.04748526   0.45228443
1200.00  -0.05398714   0.45340722
1201.00  -0.06049416   0.45453185
1202.00  -0.06700631   0.45565831
1203.00  -0.07352361   0.45678660
1204.00  -0.08004604   0.45791674
1205.00  -0.08657361   0.45904871
1206.00  -0.09310631   0.46018252
1207.00  -0.09964415   0.46131817
1208.00  -0.10618712   0.46245566
1209.00  -0.11273522   0.46359500
1210.00  -0.11928846   0.46473618
1211.00  -0.12584683   0.46587920
1212.00  -0.13241033   0.46702408
1213.00  -0.13897897   0.46817080
1214.00  -0.14555273   0.46931938
1215.00  -0.15213162   0.47046980
1216.00  -0.15871564   0.47162209
1217.00  -0.16530479   0.47277622
1218.00  -0.17189907   0.47393221
1219.00  -0.17849847   0.47509006
1220.00  -0.18510300   0.47624977
1221.00  -0.19171265   0.47741133
1222.00  -0.19832743   0.47857476
1223.00  -0.20494733   0.47974005
1224.00  -0.21157235   0.48090721
1225.00  -0.21820250   0.48207623
1226.00  -0.22483777   0.48324712
1227.00  -0.23147816   0.48441988
1228.00  -0.23812367   0.48559451
1229.00  -0.24477430   0.48677101
1230.00  -0.25143004   0.48794938
1231.00  -0.25809091   0.48912962
1232.00  -0.26475690   0.49031175
1233.00  -0.27142800   0.49149574
1234.00  -0.27810421   0.49268162
1235.00  -0.28478555   0.49386938
1236.00  -0.29147199   0.49505901
1237.00  -0.29816355   0.49625053
1238.00  -0.30486023   0.49744394
1239.00  -0.31156201   0.49863923
1240.00  -0.31826891   0.49983640
1241.00  -0.32498092   0.50103546
1242.00  -0.33169804   0.50223642
1243.00  -0.33842027   0.50343926
1244.00  -0.34514761   0.50464400
1245.00  -0.35188006   0.50585062
1246.00  -0.35861762   0.50705915
1247.00  -0.36536028   0.50826957
1248.00  -0.37210805   0.50948189
1249.00  -0.37886092   0.51069610
1250.00  -0.38561890   0.51191222
1251.00  -0.39238198   0.51313024
1252.00  -0.39915017   0.51435016
1253.00  -0.40592346   0.51557198
1254.00  -0.41270185   0.51679572
1255.00  -0.41948534   0.51802136
1256.00  -0.42627393   0.51924890
1257.00  -0.43306762   0.52047836
1258.00  -0.43986642   0.52170973
1259.00  -0.44667031   0.52294301
1260.00  -0.45347929   0.52417821
1261.00  -0.46029338   0.52541532
1262.00  -0.46711256   0.52665435
1263.00  -0.47393683   0.52789530
1264.00  -0.48076621   0.52913816
1265.00  -0.48760067   0.53038295
1266.00  -0.49444023   0.53162966
1267.00  -0.50128488   0.53287829
1268.00  -0.50813462   0.53412885
1269.00  -0.51498946   0.53538134
1270.00  -0.52184938   0.53663575
1271.00  -0.52871440   0.53789209
1272.00  -0.53558450   0.53915036
1273.00  -0.54245970   0.54041057
1274.00  -0.54933998   0.54167271
1275.00  -0.55622534   0.54293678
1276.00  -0.56311580   0.54420279
1277.00  -0.57001133   0.54547074
1278.00  -0.57691196   0.54674062
1279.00  -0.58381766   0.54801245
1280.00  -0.59072846   0.54928621
1281.00  -0.59764433   0.55056192
1282.00  -0.60456528   0.55183958
1283.00  -0.61149132   0.55311918
1284.00  -0.61842244   0.55440072
1285.00  -0.62535863   0.55568422
1286.00  -0.63229991   0.55696967
1287.00  -0.63924626   0.55825706
1288.00  -0.64619769   0.55954641
1289.00  -0.65315420   0.56083771
1290.00  -0.66011578   0.56213097
1291.00  -0.66708244   0.56342619
1292.00  -0.67405418   0.56472336
1293.00  -0.68103099   0.56602249
1294.00  -0.68801287   0.56732358
1295.00  -0.69499982   0.56862664
1296.00  -0.70199184   0.56993166
1297.00  -0.70898894   0.57123864
1298.00  -0.71599111   0.57254759
1299.00  -0.72299834   0.57385850
1300.00  -0.73001064   0.57517139
1301.00  -0.73702802   0.57648625
1302.00  -0.74405046   0.57780307
1303.00  -0.75107796   0.57912187
1304.00  -0.75811053   0.58044265
1305.00  -0.76514817   0.58176540
1306.00  -0.77219087   0.58309013
1307.00  -0.77923864   0.58441683
1308.00  -0.78629146   0.58574552
1309.00  -0.79334935   0.58707618
1310.00  -0.80041230   0.58840883
1311.00  -0.80748032   0.58974347
1312.00  -0.81455339   0.59108008
1313.00  -0.82163152   0.59241869
1314.00  -0.82871471   0.59375928
1315.00  -0.83580295   0.59510186
1316.00  -0.84289626   0.59644644
1317.00  -0.84999462   0.59779300
1318.00  -0.85709803   0.59914156
1319.00  -0.86420650   0.60049211
1320.00  -0.87132003   0.60184466
1321.00  -0.87843860   0.60319921
1322.00  -0.88556223   0.60455575
1323.00  -0.89269092   0.60591430
1324.00  -0.89982465   0.60727484
1325.00  -0.90696343   0.60863739
1326.00  -0.91410726   0.61000195
1327.00  -0.92125614   0.61136851
1328.00  -0.92841007   0.61273707
1329.00  -0.93556905   0.61410765
1330.00  -0.94273307   0.61548023
1331.00  -0.94990214   0.61685482
1332.00  -0.95707625   0.61823143
1333.00  -0.96425541   0.61961005
1334.00  -0.97143961   0.62099069
1335.00  -0.97862886   0.62237334
1336.00  -0.98582314   0.62375801
1337.00  -0.99302247   0.62514470
1338.00  -1.00022684   0.62653341
1339.00  -1.00743625   0.62792414
1340.00  -1.01465069   0.62931689
1341.00  -1.02187018   0.63071167
1342.00  -1.02909470   0.63210847
1343.00  -1.03632426   0.63350730
1344.00  -1.04355886   0.63490816
1345.00  -1.05079849   0.63631105
1346.00  -1.05804315   0.63771597
1347.00  -1.06529285   0.63912293
1348.00  -1.07254758   0.64053191
1349.00  -1.07980734   0.64194294
1350.00  -1.08707214   0.64335600
1351.00  -1.09434197   0.64477109
1352.00  -1.10161682   0.64618823
1353.00  -1.10889671   0.64760741
1354.00  -1.11618162   0.64902862
1355.00  -1.12347156   0.65045189
1356.00  -1.13076653   0.65187719
1357.00  -1.13806652   0.65330454
1358.00  -1.14537154   0.65473394
1359.00  -1.15268159   0.65616539
1360.00  -1.15999666   0.65759889
1361.00  -1.16731675   0.65903444
1362.00  -1.17464186   0.66047204
1363.00  -1.18197200   0.66191170
1364.00  -1.18930715   0.66335341
1365.00  -1.19664733   0.66479718
1366.00  -1.20399252   0.66624301
1367.00  -1.21134274   0.66769089
1368.00  -1.21869797   0.66914084
1369.00  -1.22605822   0.67059285
1370.00  -1.23342348   0.67204692
1371.00  -1.24079376   0.67350305
1372.00  -1.24816906   0.67496126
1373.00  -1.25554937   0.67642153
1374.00  -1.26293469   0.67788387
1375.00  -1.27032502   0.67934828
1376.00  -1.27772037   0.68081476
1377.00  -1.28512073   0.68228331
1378.00  -1.29252610   0.68375394
1379.00  -1.29993647   0.68522664
1380.00  -1.30735186   0.68670142
1381.00  -1.31477225   0.68817827
1382.00  -1.32219765   0.68965721
1383.00  -1.32962805   0.69113823
1384.00  -1.33706347   0.69262133
1385.00  -1.34450388   0.69410651
1386.00  -1.35194930   0.69559378
1387.00  -1.35939973   0.69708313
1388.00  -1.36685515   0.69857457
1389.00  -1.37431558   0.70006810
1390.00  -1.38178101   0.70156372
1391.00  -1.38925143   0.70306143
1392.00  -1.39672686   0.70456124
1393.00  -1.40420729   0.70606314
1394.00  -1.41169271   0.70756713
1395.00  -1.41918313   0.70907322
1396.00  -1.42667855   0.71058141
1397.00  -1.43417896   0.71209170
1398.00  -1.44168436   0.71360409
1399.00  -1.44919476   0.71511858
1400.00  -1.45671016   0.71663517
1401.00  -1.46423054   0.71815387
1402.00  -1.47175592   0.71967467
1403.00  -1.47928629   0.72119758
1404.00  -1.48682164   0.72272260
1405.00  -1.49436199   0.72424973
1406.00  -1.50190732   0.72577898
1407.00  -1.50945765   0.72731033
1408.00  -1.51701296   0.72884380
1409.00  -1.52457325   0.73037938
1410.00  -1.53213853   0.73191708
1411.00  -1.53970880   0.73345690
1412.00  -1.54728404   0.73499884
1413.00  -1.55486428   0.73654290
1414.00  -1.56244949   0.73808908
1415.00  -1.57003968   0.73963738
1416.00  -1.57763486   0.74118781
1417.00  -1.58523501   0.74274036
1418.00  -1.59284015   0.74429504
1419.00  -1.60045026   0.74585185
1420.00  -1.60806535   0.74741079
1421.00  -1.61568541   0.74897186
1422.00  -1.62331045   0.75053506
1423.00  -1.63094047   0.75210040
1424.00  -1.63857546   0.75366787
1425.00  -1.64621542   0.75523748
1426.00  -1.65386036   0.75680922
1427.00  -1.66151027   0.75838311
1428.00  -1.66916515   0.75995913
1429.00  -1.67682500   0.76153730
1430.00  -1.68448981   0.76311761
1431.00  -1.69215960   0.76470006
1432.00  -1.69983436   0.76628466
1433.00  -1.70751408   0.76787141
1434.00  -1.71519877   0.76946030
1435.00  -1.72288842   0.77105135
1436.00  -1.73058304   0.77264454
1437.00  -1.73828262   0.77423989
1438.00  -1.74598717   0.77583739
1439.00  -1.75369667   0.77743705
1440.00  -1.76141114   0.77903886
1441.00  -1.76913057   0.78064283
1442.00  -1.77685496   0.78224896
1443.00  -1.78458431   0.78385725
1444.00  -1.79231862   0.78546770
1445.00  -1.80005788   0.78708031
1446.00  -1.80780210   0.78869508
1447.00  -1.81555128   0.79031203
1448.00  -1.82330541   0.79193113
1449.00  -1.83106450   0.79355241
1450.00  -1.83882854   0.79517586
1451.00  -1.84659753   0.79680147
1452.00  -1.85437147   0.79842926
1453.00  -1.86215037   0.80005922
1454.00  -1.86993421   0.80169136
1455.00  -1.87772301   0.80332567
1456.00  -1.88551675   0.80496216
1457.00  -1.89331544   0.80660082
1458.00  -1.90111908   0.80824167
1459.00  -1.90892766   0.80988470
1460.00  -1.91674119   0.81152991
1461.00  -1.92455967   0.81317730
1462.00  -1.93238308   0.81482688
1463.00  -1.94021144   0.81647865
1464.00  -1.94804475   0.81813260
1465.00  -1.95588299   0.81978874
1466.00  -1.96372618   0.82144707
1467.00  -1.97157430   0.82310759
1468.00  -1.97942736   0.82477031
1469.00  -1.98728537   0.82643522
1470.00  -1.99514830   0.82810232
1471.00  -2.00301618   0.82977163
1472.00  -2.01088899   0.83144313
1473.00  -2.01876674   0.83311682
1474.00  -2.02664942   0.83479272
1475.00  -2.03453703   0.83647083
1476.00  -2.04242957   0.83815113
1477.00  -2.05032705   0.83983364
1478.00  -2.05822946   0.84151835
1479.00  -2.06613680   0.84320527
1480.00  -2.07404906   0.84489441
1481.00  -2.08196626   0.84658574
1482.00  -2.08988838   0.84827930
1483.00  -2.09781543   0.84997506
1484.00  -2.10574740   0.85167303
1485.00  -2.11368430   0.85337323
1486.00  -2.12162613   0.85507563
1487.00  -2.12957288   0.85678026
1488.00  -2.13752455   0.85848710
1489.00  -2.14548114   0.86019617
1490.00  -2.15344265   0.86190745
1491.00  -2.16140909   0.86362096
1492.00  -2.16938044   0.86533669
1493.00  -2.17735671   0.86705465
1494.00  -2.18533790   0.86877483
1495.00  -2.19332400   0.87049724
1496.00  -2.20131503   0.87222188
1497.00  -2.20931096   0.87394875
1498.00  -2.21731181   0.87567785
1499.00  -2.22531758   0.87740919
1500.00  -2.23332826   0.87914276
1501.00  -2.24134385   0.88087856
1502.00  -2.24936435   0.88261660
1503.00  -2.25738976   0.88435688
1504.00  -2.26542008   0.88609940
1505.00  -2.27345530   0.88784416
1506.00  -2.28149544   0.88959116
1507.00  -2.28954048   0.89134041
1508.00  -2.29759043   0.89309189
1509.00  -2.30564529   0.89484563
1510.00  -2.31370505   0.89660161
1511.00  -2.32176971   0.89835984
1512.00  -2.32983928   0.90012032
1513.00  -2.33791374   0.90188305
1514.00  -2.34599311   0.90364804
1515.00  -2.35407738   0.90541528
1516.00  -2.36216655   0.90718477
1517.00  -2.37026062   0.90895651
1518.00  -2.37835958   0.91073052
1519.00  -2.38646344   0.91250678
1520.00  -2.39457220   0.91428531
1521.00  -2.40268585   0.91606609
1522.00  -2.41080440   0.91784914
1523.00  -2.41892784   0.91963445
1524.00  -2.42705618   0.92142203
1525.00  -2.43518940   0.92321187
1526.00  -2.44332752   0.92500398
1527.00  -2.45147053   0.92679836
1528.00  -2.45961842   0.92859501
1529.00  -2.46777121   0.93039393
1530.00  -2.47592888   0.93219513
1531.00  -2.48409144   0.93399860
1532.00  -2.49225889   0.93580434
1533.00  -2.50043122   0.93761236
1534.00  -2.50860844   0.93942266
1535.00  -2.51679054   0.94123523
1536.00  -2.52497752   0.94305009
1537.00  -2.53316938   0.94486723
1538.00  -2.54136613   0.94668665
1539.00  -2.54956775   0.94850836
1540.00  -2.55777426   0.95033235
1541.00  -2.56598564   0.95215863
1542.00  -2.57420190   0.95398720
1543.00  -2.58242304   0.95581805
1544.00  -2.59064905   0.95765120
1545.00  -2.59887994   0.95948664
1546.00  -2.60711570   0.96132437
1547.00  -2.61535634   0.96316440
1548.00  -2.62360185   0.96500672
1549.00  -2.63185223   0.96685134
1550.00  -2.64010748   0.96869826
1551.00  -2.64836760   0.97054747
1552.00  -2.65663260   0.97239899
1553.00  -2.66490245   0.97425281
1554.00  -2.67317718   0.97610893
1555.00  -2.68145678   0.97796736
1556.00  -2.68974123   0.97982809
1557.00  -2.69803056   0.98169113
1558.00  -2.70632475   0.98355648
1559.00  -2.71462380   0.98542414
1560.00  -2.72292771   0.98729411
1561.00  -2.73123649   0.98916639
1562.00  -2.73955013   0.99104099
1563.00  -2.74786862   0.99291790
1564.00  -2.75619198   0.99479713
1565.00  -2.76452019   0.99667867
1566.00  -2.77285326   0.99856253
1567.00  -2.78119119   1.00044871
1568.00  -2.78953397   1.00233722
1569.00  -2.79788161   1.00422804
1570.00  -2.80623410   1.00612119
1571.00  -2.81459145   1.00801666
1572.00  -2.82295364   1.00991446
1573.00  -2.83132069   1.01181459
1574.00  -2.83969259   1.01371705
1575.00  -2.84806934   1.01562183
1576.00  -2.85645093   1.01752895
1577.00  -2.86483738   1.01943840
1578.00  -2.87322867   1.02135018
1579.00  -2.88162481   1.02326430
1580.00  -2.89002579   1.02518075
1581.00  -2.89843162   1.02709955
1582.00  -2.90684229   1.02902068
1583.00  -2.91525780   1.03094415
1584.00  -2.92367816   1.03286996
1585.00  -2.93210336   1.03479811
1586.00  -2.94053339   1.03672861
1587.00  -2.94896827   1.03866145
1588.00  -2.95740799   1.04059664
1589.00  -2.96585254   1.04253418
1590.00  -2.97430193   1.04447407
1591.00  -2.98275615   1.04641630
1592.00  -2.99121521   1.04836089
1593.00  -2.99967910   1.05030783
1594.00  -3.00814783   1.05225712
1595.00  -3.01662139   1.05420877
1596.00  -3.02509978   1.05616277
1597.00  -3.03358300   1.05811914
1598.00  -3.04207106   1.06007786
1599.00  -3.05056394   1.06203894
1600.00  -3.05906164   1.06400238
1601.00  -3.06756418   1.06596819
1602.00  -3.07607154   1.06793636
1603.00  -3.08458373   1.06990689
1604.00  -3.09310074   1.07187979
1605.00  -3.10162257   1.07385506
1606.00  -3.11014923   1.07583269
1607.00  -3.11868071   1.07781270
1608.00  -3.12721701   1.07979508
1609.00  -3.13575814   1.08177983
1610.00  -3.14430408   1.08376695
1611.00  -3.15285484   1.08575645
1612.00  -3.16141041   1.08774833
1613.00  -3.16997081   1.08974258
1614.00  -3.17853601   1.09173921
1615.00  -3.18710604   1.09373823
1616.00  -3.19568088   1.09573962
1617.00  -3.20426053   1.09774340
1618.00  -3.21284499   1.09974956
1619.00  -3.22143427   1.10175810
1620.00  -3.23002835   1.10376903
1621.00  -3.23862725   1.10578235
1622.00  -3.24723095   1.10779806
1623.00  -3.25583947   1.10981616
1624.00  -3.26445279   1.11183664
1625.00  -3.27307091   1.11385953
1626.00  -3.28169384   1.11588480
1627.00  -3.29032158   1.11791247
1628.00  -3.29895412   1.11994254
1629.00  -3.30759146   1.12197500
1630.00  -3.31623360   1.12400986
1631.00  -3.32488055   1.12604712
1632.00  -3.33353229   1.12808679
1633.00  -3.34218883   1.13012885
1634.00  -3.35085018   1.13217332
1635.00  -3.35951632   1.13422020
1636.00  -3.36818725   1.13626948
1637.00  -3.37686298   1.13832116
1638.00  -3.38554351   1.14037526
1639.00  -3.39422883   1.14243177
1640.00  -3.40291894   1.14449068
1641.00  -3.41161385   1.14655201
1642.00  -3.42031354   1.14861576
1643.00  -3.42901803   1.15068191
1644.00  -3.43772731   1.15275049
1645.00  -3.44644137   1.15482148
1646.00  -3.45516022   1.15689489
1647.00  -3.46388386   1.15897072
1648.00  -3.47261229   1.16104897
1649.00  -3.48134550   1.16312964
1650.00  -3.49008349   1.16521274
1651.00  -3.49882627   1.16729826
1652.00  -3.50757383   1.16938620
1653.00  -3.51632617   1.17147658
1654.00  -3.52508329   1.17356938
1655.00  -3.53384519   1.17566461
1656.00  -3.54261187   1.17776227
1657.00  -3.55138333   1.17986236
1658.00  -3.56015956   1.18196489
1659.00  -3.56894057   1.18406985
1660.00  -3.57772636   1.18617725
1661.00  -3.58651692   1.18828708
1662.00  -3.59531225   1.19039936
1663.00  -3.60411236   1.19251407
1664.00  -3.61291724   1.19463122
1665.00  -3.62172688   1.19675081
1666.00  -3.63054130   1.19887285
1667.00  -3.63936049   1.20099733
1668.00  -3.64818445   1.20312426
1669.00  -3.65701317   1.20525363
1670.00  -3.66584666   1.20738546
1671.00  -3.67468491   1.20951973
1672.00  -3.68352793   1.21165645
1673.00  -3.69237571   1.21379562
1674.00  -3.70122826   1.21593725
1675.00  -3.71008556   1.21808133
1676.00  -3.71894763   1.22022786
1677.00  -3.72781446   1.22237685
1678.00  -3.73668604   1.22452830
1679.00  -3.74556239   1.22668221
1680.00  -3.75444349   1.22883858
1681.00  -3.76332935   1.23099741
1682.00  -3.77221996   1.23315870
1683.00  -3.78111533   1.23532245
1684.00  -3.79001545   1.23748868
1685.00  -3.79892033   1.23965736
1686.00  -3.80782995   1.24182852
1687.00  -3.81674433   1.24400214
1688.00  -3.82566346   1.24617823
1689.00  -3.83458733   1.24835680
1690.00  -3.84351596   1.25053784
1691.00  -3.85244933   1.25272135
1692.00  -3.86138745   1.25490733
1693.00  -3.87033031   1.25709579
1694.00  -3.87927792   1.25928673
1695.00  -3.88823027   1.26148015
1696.00  -3.89718737   1.26367604
1697.00  -3.90614921   1.26587442
1698.00  -3.91511579   1.26807528
1699.00  -3.92408710   1.27027862
1700.00  -3.93306316   1.27248445
1701.00  -3.94204396   1.27469276
1702.00  -3.95102949   1.27690356
1703.00  -3.96001976   1.27911685
1704.00  -3.96901476   1.28133263
1705.00  -3.97801450   1.28355089
1706.00  -3.98701898   1.28577165
1707.00  -3.99602818   1.28799490
1708.00  -4.00504212   1.29022065
1709.00  -4.01406079   1.29244889
1710.00  -4.02308419   1.29467963
1711.00  -4.03211231   1.29691286
1712.00  -4.04114517   1.29914860
1713.00  -4.05018275   1.30138683
1714.00  -4.05922506   1.30362757
1715.00  -4.06827210   1.30587081
1716.00  -4.07732386   1.30811655
1717.00  -4.08638034   1.31036480
1718.00  -4.09544155   1.31261555
1719.00  -4.10450748   1.31486881
1720.00  -4.11357813   1.31712458
1721.00  -4.12265349   1.31938286
1722.00  -4.13173358   1.32164365
1723.00  -4.14081839   1.32390696
1724.00  -4.14990791   1.32617277
1725.00  -4.15900215   1.32844110
1726.00  -4.16810111   1.33071195
1727.00  -4.17720478   1.33298531
1728.00  -4.18631316   1.33526120
1729.00  -4.19542626   1.33753960
1730.00  -4.20454406   1.33982052
1731.00  -4.21366658   1.34210396
1732.00  -4.22279381   1.34438993
1733.00  -4.23192575   1.34667842
1734.00  -4.24106239   1.34896944
1735.00  -4.25020374   1.35126298
1736.00  -4.25934980   1.35355905
1737.00  -4.26850057   1.35585765
1738.00  -4.27765603   1.35815878
1739.00  -4.28681621   1.36046244
1740.00  -4.29598108   1.36276863
1741.00  -4.30515066   1.36507736
1742.00  -4.31432493   1.36738862
1743.00  -4.32350391   1.36970242
1744.00  -4.33268758   1.37201876
1745.00  -4.34187596   1.37433763
1746.00  -4.35106902   1.37665905
1747.00  -4.36026679   1.37898300
1748.00  -4.36946925   1.38130950
1749.00  -4.37867641   1.38363854
1750.00  -4.38788825   1.38597013
1751.00  -4.39710479   1.38830426
1752.00  -4.40632603   1.39064093
1753.00  -4.41555195   1.39298016
1754.00  -4.42478256   1.39532193
1755.00  -4.43401786   1.39766626
1756.00  -4.44325785   1.40001314
1757.00  -4.45250252   1.40236257
1758.00  -4.46175188   1.40471455
1759.00  -4.47100593   1.40706909
1760.00  -4.48026466   1.40942619
1761.00  -4.48952807   1.41178584
1762.00  -4.49879616   1.41414805
1763.00  -4.50806894   1.41651282
1764.00  -4.51734639   1.41888015
1765.00  -4.52662853   1.42125005
1766.00  -4.53591534   1.42362251
1767.00  -4.54520683   1.42599753
1768.00  -4.55450300   1.42837512
1769.00  -4.56380384   1.43075528
1770.00  -4.57310936   1.43313800
1771.00  -4.58241955   1.43552329
1772.00  -4.59173441   1.43791116
1773.00  -4.60105395   1.44030159
1774.00  -4.61037815   1.44269460
1775.00  -4.61970703   1.44509019
1776.00  -4.62904057   1.44748835
1777.00  -4.63837879   1.44988908
1778.00  -4.64772167   1.45229239
1779.00  -4.65706921   1.45469828
1780.00  -4.66642142   1.45710676
1781.00  -4.67577830   1.45951781
1782.00  -4.68513984   1.46193144
1783.00  -4.69450604   1.46434766
1784.00  -4.70387690   1.46676647
1785.00  -4.71325243   1.46918785
1786.00  -4.72263261   1.47161183
1787.00  -4.73201745   1.47403839
1788.00  -4.74140695   1.47646755
1789.00  -4.75080110   1.47889929
1790.00  -4.76019992   1.48133363
1791.00  -4.76960338   1.48377056
1792.00  -4.77901150   1.48621008
1793.00  -4.78842428   1.48865220
1794.00  -4.79784170   1.49109692
1795.00  -4.80726378   1.49354423
1796.00  -4.81669050   1.49599414
1797.00  -4.82612188   1.49844665
1798.00  -4.83555790   1.50090176
1799.00  -4.84499857   1.50335948
1800.00  -4.85444389   1.50581980
1801.00  -4.86389386   1.50828272
1802.00  -4.87334846   1.51074825
1803.00  -4.88280771   1.51321638
1804.00  -4.89227161   1.51568713
1805.00  -4.90174014   1.51816048
1806.00  -4.91121332   1.52063645
1807.00  -4.92069113   1.52311502
1808.00  -4.93017359   1.52559621
1809.00  -4.93966068   1.52808001
1810.00  -4.94915241   1.53056643
1811.00  -4.95864877   1.53305546
1812.00  -4.96814977   1.53554711
1813.00  -4.97765540   1.53804138
1814.00  -4.98716567   1.54053827
1815.00  -4.99668057   1.54303778
1816.00  -5.00620010   1.54553992
1817.00  -5.01572426   1.54804467
1818.00  -5.02525305   1.55055205
1819.00  -5.03478646   1.55306206
1820.00  -5.04432451   1.55557469
1821.00  -5.05386718   1.55808995
1822.00  -5.06341448   1.56060784
1823.00  -5.07296640   1.56312836
1824.00  -5.08252294   1.56565152
1825.00  -5.09208411   1.56817730
1826.00  -5.10164990   1.57070572
1827.00  -5.11122031   1.57323677
1828.00  -5.12079533   1.57577046
1829.00  -5.13037498   1.57830679
1830.00  -5.13995925   1.58084575
1831.00  -5.14954813   1.58338735
1832.00  -5.15914163   1.58593160
1833.00  -5.16873974   1.58847849
1834.00  -5.17834247   1.59102802
1835.00  -5.18794981   1.59358019
1836.00  -5.19756176   1.59613501
1837.00  -5.20717832   1.59869247
1838.00  -5.21679949   1.60125259
1839.00  -5.22642527   1.60381535
1840.00  -5.23605566   1.60638076
1841.00  -5.24569066   1.60894882
1842.00  -5.25533026   1.61151954
1843.00  -5.26497447   1.61409291
1844.00  -5.27462328   1.61666893
1845.00  -5.28427670   1.61924761
1846.00  -5.29393472   1.62182894
1847.00  -5.30359734   1.62441294
1848.00  -5.31326456   1.62699959
1849.00  -5.32293638   1.62958890
1850.00  -5.33261280   1.63218087
1851.00  -5.34229381   1.63477551
1852.00  -5.35197942   1.63737281
1853.00  -5.36166963   1.63997278
1854.00  -5.37136444   1.64257541
1855.00  -5.38106383   1.64518070
1856.00  -5.39076782   1.64778867
1857.00  -5.40047640   1.65039931
1858.00  -5.41018957   1.65301261
1859.00  -5.41990733   1.65562859
1860.00  -5.42962968   1.65824724
1861.00  -5.43935662   1.66086857
1862.00  -5.44908815   1.66349257
1863.00  -5.45882426   1.66611924
1864.00  -5.46856495   1.66874860
1865.00  -5.47831023   1.67138063
1866.00  -5.48806009   1.67401534
1867.00  -5.49781454   1.67665274
1868.00  -5.50757357   1.67929281
1869.00  -5.51733717   1.68193557
1870.00  -5.52710536   1.68458101
1871.00  -5.53687812   1.68722914
1872.00  -5.54665546   1.68987995
1873.00  -5.55643738   1.69253346
1874.00  -5.56622387   1.69518965
1875.00  -5.57601493   1.69784853
1876.00  -5.58581057   1.70051010
1877.00  -5.59561078   1.70317436
1878.00  -5.60541557   1.70584132
1879.00  -5.61522492   1.70851097
1880.00  -5.62503884   1.71118332
1881.00  -5.63485733   1.71385837
1882.00  -5.64468039   1.71653611
1883.00  -5.65450802   1.71921655
1884.00  -5.66434021   1.72189969
1885.00  -5.67417696   1.72458553
1886.00  -5.68401828   1.72727408
1887.00  -5.69386416   1.72996533
1888.00  -5.70371460   1.73265928
1889.00  -5.71356960   1.73535594
1890.00  -5.72342917   1.73805531
1891.00  -5.73329329   1.74075738
1892.00  -5.74316197   1.74346216
1893.00  -5.75303520   1.74616966
1894.00  -5.76291299   1.74887986
1895.00  -5.77279534   1.75159278
1896.00  -5.78268224   1.75430841
1897.00  -5.79257369   1.75702676
1898.00  -5.80246969   1.75974782
1899.00  -5.81237025   1.76247160
1900.00  -5.82227535   1.76519810
1901.00  -5.83218501   1.76792732
1902.00  -5.84209921   1.77065926
1903.00  -5.85201795   1.77339392
1904.00  -5.86194125   1.77613130
1905.00  -5.87186909   1.77887140
1906.00  -5.88180147   1.78161424
1907.00  -5.89173839   1.78435979
1908.00  -5.90167986   1.78710808
1909.00  -5.91162587   1.78985909
1910.00  -5.92157642   1.79261283
1911.00  -5.93153150   1.79536931
1912.00  -5.94149113   1.79812851
1913.00  -5.95145529   1.80089045
1914.00  -5.96142399   1.80365512
1915.00  -5.97139722   1.80642253
1916.00  -5.98137499   1.80919267
1917.00  -5.99135728   1.81196555
1918.00  -6.00134412   1.81474117
1919.00  -6.01133548   1.81751952
1920.00  -6.02133137   1.82030062
1921.00  -6.03133179   1.82308446
1922.00  -6.04133674   1.82587105
1923.00  -6.05134622   1.82866037
1924.00  -6.06136022   1.83145245
1925.00  -6.07137875   1.83424727
1926.00  -6.08140180   1.83704483
1927.00  -6.09142938   1.83984515
1928.00  -6.10146147   1.84264821
1929.00  -6.11149809   1.84545403
1930.00  -6.12153923   1.84826259
1931.00  -6.13158489   1.85107391
1932.00  -6.14163506   1.85388799
1933.00  -6.15168976   1.85670481
1934.00  -6.16174896   1.85952440
1935.00  -6.17181269   1.86234674
1936.00  -6.18188093   1.86517184
1937.00  -6.19195368   1.86799970
1938.00  -6.20203094   1.87083032
1939.00  -6.21211272   1.87366371
1940.00  -6.22219900   1.87649985
1941.00  -6.23228979   1.87933876
1942.00  -6.24238510   1.88218044
1943.00  -6.25248490   1.88502488
1944.00  -6.26258922   1.88787209
1945.00  -6.27269804   1.89072207
1946.00  -6.28281136   1.89357481
1947.00  -6.29292919   1.89643033
1948.00  -6.30305152   1.89928862
1949.00  -6.31317835   1.90214968
1950.00  -6.32330968   1.90501352
1951.00  -6.33344551   1.90788013
1952.00  -6.34358584   1.91074952
1953.00  -6.35373067   1.91362168
1954.00  -6.36387999   1.91649662
1955.00  -6.37403381   1.91937435
1956.00  -6.38419212   1.92225485
1957.00  -6.39435492   1.92513813
1958.00  -6.40452222   1.92802420
1959.00  -6.41469401   1.93091305
1960.00  -6.42487028   1.93380469
1961.00  -6.43505105   1.93669911
1962.00  -6.44523631   1.93959632
1963.00  -6.45542605   1.94249632
1964.00  -6.46562028   1.94539911
1965.00  -6.47581899   1.94830469
1966.00  -6.48602219   1.95121306
1967.00  -6.49622987   1.95412422
1968.00  -6.50644203   1.95703817
1969.00  -6.51665867   1.95995493
1970.00  -6.52687980   1.96287447
1971.00  -6.53710540   1.96579682
1972.00  -6.54733548   1.96872196
1973.00  -6.55757004   1.97164990
1974.00  -6.56780907   1.97458064
1975.00  -6.57805258   1.97751418
1976.00  -6.58830056   1.98045053
1977.00  -6.59855302   1.98338968
1978.00  -6.60880995   1.98633163
1979.00  -6.61907134   1.98927639
1980.00  -6.62933721   1.99222396
1981.00  -6.63960755   1.99517433
1982.00  -6.64988236   1.99812752
1983.00  -6.66016163   2.00108351
1984.00  -6.67044537   2.00404232
1985.00  -6.68073357   2.00700393
1986.00  -6.69102624   2.00996836
1987.00  -6.70132337   2.01293561
1988.00  -6.71162496   2.01590567
1989.00  -6.72193101   2.01887855
1990.00  -6.73224153   2.02185424
1991.00  -6.74255650   2.02483276
1992.00  -6.75287593   2.02781409
1993.00  -6.76319982   2.03079825
1994.00  -6.77352816   2.03378522
1995.00  -6.78386096   2.03677503
1996.00  -6.79419821   2.03976765
1997.00  -6.80453991   2.04276310
1998.00  -6.81488606   2.04576138
1999.00  -6.82523667   2.04876248
2000.00  -6.83559173   2.05176641
