wavelength(nm)         real         imag
200.00   3.74912177   0.00288356
201.00   3.74760978   0.00292702
202.00   3.74609025   0.00297091
203.00   3.74456319   0.00301524
204.00   3.74302861   0.00306001
205.00   3.74148649   0.00310522
206.00   3.73993685   0.00315087
207.00   3.73837967   0.00319697
208.00   3.73681497   0.00324351
209.00   3.73524274   0.00329051
210.00   3.73366298   0.00333795
211.00   3.73207569   0.00338585
212.00   3.73048087   0.00343421
213.00   3.72887853   0.00348302
214.00   3.72726866   0.00353229
215.00   3.72565126   0.00358203
216.00   3.72402633   0.00363223
217.00   3.72239387   0.00368290
218.00   3.72075389   0.00373403
219.00   3.71910638   0.00378564
220.00   3.71745134   0.00383772
221.00   3.71578878   0.00389027
222.00   3.71411869   0.00394331
223.00   3.71244107   0.00399682
224.00   3.71075593   0.00405081
225.00   3.70906326   0.00410529
226.00   3.70736307   0.00416025
227.00   3.70565535   0.00421571
228.00   3.70394010   0.00427165
229.00   3.70221733   0.00432808
230.00   3.70048704   0.00438501
231.00   3.69874922   0.00444244
232.00   3.69700387   0.00450036
233.00   3.69525100   0.00455879
234.00   3.69349061   0.00461772
235.00   3.69172269   0.00467715
236.00   3.68994725   0.00473710
237.00   3.68816429   0.00479755
238.00   3.68637380   0.00485851
239.00   3.68457579   0.00491999
240.00   3.68277025   0.00498199
241.00   3.68095719   0.00504450
242.00   3.67913661   0.00510753
243.00   3.67730851   0.00517109
244.00   3.67547289   0.00523517
245.00   3.67362974   0.00529977
246.00   3.67177907   0.00536491
247.00   3.66992088   0.00543058
248.00   3.66805517   0.00549678
249.00   3.66618193   0.00556352
250.00   3.66430118   0.00563079
251.00   3.66241290   0.00569860
252.00   3.66051711   0.00576696
253.00   3.65861379   0.00583586
254.00   3.65670295   0.00590531
255.00   3.65478460   0.00597530
256.00   3.65285872   0.00604585
257.00   3.65092532   0.00611695
258.00   3.64898441   0.00618860
259.00   3.64703597   0.00626081
260.00   3.64508002   0.00633358
261.00   3.64311655   0.00640691
262.00   3.64114556   0.00648080
263.00   3.63916705   0.00655526
264.00   3.63718102   0.00663029
265.00   3.63518747   0.00670589
266.00   3.63318641   0.00678206
267.00   3.63117783   0.00685880
268.00   3.62916173   0.00693612
269.00   3.62713812   0.00701402
270.00   3.62510699   0.00709250
271.00   3.62306834   0.00717156
272.00   3.62102217   0.00725121
273.00   3.61896849   0.00733145
274.00   3.61690730   0.00741227
275.00   3.61483858   0.00749368
276.00   3.61276236   0.00757569
277.00   3.61067861   0.00765830
278.00   3.60858735   0.00774150
279.00   3.60648858   0.00782530
280.00   3.60438229   0.00790971
281.00   3.60226849   0.00799472
282.00   3.60014718   0.00808033
283.00   3.59801835   0.00816656
284.00   3.59588201   0.00825339
285.00   3.59373815   0.00834084
286.00   3.59158678   0.00842890
287.00   3.58942790   0.00851758
288.00   3.58726150   0.00860688
289.00   3.58508759   0.00869680
290.00   3.58290617   0.00878735
291.00   3.58071724   0.00887852
292.00   3.57852080   0.00897031
293.00   3.57631684   0.00906274
294.00   3.57410538   0.00915580
295.00   3.57188640   0.00924950
296.00   3.56965991   0.00934383
297.00   3.56742591   0.00943880
298.00   3.56518440   0.00953441
299.00   3.56293539   0.00963067
300.00   3.56067886   0.00972756
301.00   3.55841482   0.00982511
302.00   3.55614327   0.00992331
303.00   3.55386422   0.01002215
304.00   3.55157765   0.01012165
305.00   3.54928358   0.01022181
306.00   3.54698199   0.01032263
307.00   3.54467290   0.01042410
308.00   3.54235631   0.01052624
309.00   3.54003220   0.01062904
310.00   3.53770059   0.01073251
311.00   3.53536147   0.01083665
312.00   3.53301484   0.01094145
313.00   3.53066071   0.01104693
314.00   3.52829907   0.01115309
315.00   3.52592993   0.01125992
316.00   3.52355327   0.01136744
317.00   3.52116912   0.01147563
318.00   3.51877746   0.01158451
319.00   3.51637829   0.01169407
320.00   3.51397162   0.01180432
321.00   3.51155744   0.01191527
322.00   3.50913576   0.01202690
323.00   3.50670658   0.01213923
324.00   3.50426989   0.01225226
325.00   3.50182570   0.01236598
326.00   3.49937401   0.01248040
327.00   3.49691481   0.01259553
328.00   3.49444811   0.01271137
329.00   3.49197391   0.01282791
330.00   3.48949221   0.01294516
331.00   3.48700300   0.01306312
332.00   3.48450630   0.01318179
333.00   3.48200209   0.01330118
334.00   3.47949038   0.01342129
335.00   3.47697117   0.01354212
336.00   3.47444446   0.01366367
337.00   3.47191025   0.01378595
338.00   3.46936854   0.01390895
339.00   3.46681933   0.01403268
340.00   3.46426262   0.01415714
341.00   3.46169841   0.01428234
342.00   3.45912671   0.01440827
343.00   3.45654750   0.01453494
344.00   3.45396080   0.01466234
345.00   3.45136660   0.01479049
346.00   3.44876490   0.01491938
347.00   3.44615570   0.01504902
348.00   3.44353901   0.01517941
349.00   3.44091482   0.01531054
350.00   3.43828314   0.01544243
351.00   3.43564395   0.01557508
352.00   3.43299728   0.01570847
353.00   3.43034310   0.01584263
354.00   3.42768143   0.01597755
355.00   3.42501227   0.01611323
356.00   3.42233561   0.01624968
357.00   3.41965146   0.01638689
358.00   3.41695981   0.01652488
359.00   3.41426067   0.01666363
360.00   3.41155404   0.01680316
361.00   3.40883991   0.01694346
362.00   3.40611829   0.01708455
363.00   3.40338917   0.01722641
364.00   3.40065257   0.01736905
365.00   3.39790847   0.01751248
366.00   3.39515688   0.01765670
367.00   3.39239780   0.01780170
368.00   3.38963123   0.01794750
369.00   3.38685717   0.01809408
370.00   3.38407561   0.01824147
371.00   3.38128657   0.01838964
372.00   3.37849004   0.01853862
373.00   3.37568601   0.01868840
374.00   3.37287450   0.01883899
375.00   3.37005550   0.01899038
376.00   3.36722901   0.01914257
377.00   3.36439503   0.01929558
378.00   3.36155356   0.01944940
379.00   3.35870461   0.01960404
380.00   3.35584817   0.01975949
381.00   3.35298424   0.01991575
382.00   3.35011282   0.02007284
383.00   3.34723392   0.02023076
384.00   3.34434753   0.02038949
385.00   3.34145366   0.02054906
386.00   3.33855230   0.02070945
387.00   3.33564345   0.02087067
388.00   3.33272712   0.02103273
389.00   3.32980330   0.02119563
390.00   3.32687201   0.02135936
391.00   3.32393322   0.02152393
392.00   3.32098695   0.02168934
393.00   3.31803320   0.02185560
394.00   3.31507197   0.02202270
395.00   3.31210325   0.02219065
396.00   3.30912706   0.02235946
397.00   3.30614338   0.02252911
398.00   3.30315221   0.02269962
399.00   3.30015357   0.02287099
400.00   3.29714744   0.02304321
401.00   3.29413384   0.02321630
402.00   3.29111275   0.02339025
403.00   3.28808419   0.02356507
404.00   3.28504814   0.02374075
405.00   3.28200462   0.02391730
406.00   3.27895361   0.02409473
407.00   3.27589513   0.02427303
408.00   3.27282917   0.02445220
409.00   3.26975573   0.02463225
410.00   3.26667481   0.02481319
411.00   3.26358642   0.02499500
412.00   3.26049054   0.02517770
413.00   3.25738719   0.02536129
414.00   3.25427637   0.02554577
415.00   3.25115807   0.02573113
416.00   3.24803229   0.02591740
417.00   3.24489904   0.02610455
418.00   3.24175831   0.02629260
419.00   3.23861011   0.02648156
420.00   3.23545443   0.02667141
421.00   3.23229128   0.02686217
422.00   3.22912066   0.02705383
423.00   3.22594256   0.02724640
424.00   3.22275699   0.02743989
425.00   3.21956395   0.02763428
426.00   3.21636343   0.02782959
427.00   3.21315545   0.02802582
428.00   3.20993999   0.02822296
429.00   3.20671706   0.02842103
430.00   3.20348665   0.02862001
431.00   3.20024878   0.02881993
432.00   3.19700344   0.02902077
433.00   3.19375063   0.02922254
434.00   3.19049035   0.02942524
435.00   3.18722260   0.02962887
436.00   3.18394738   0.02983344
437.00   3.18066469   0.03003895
438.00   3.17737454   0.03024540
439.00   3.17407691   0.03045279
440.00   3.17077182   0.03066112
441.00   3.16745927   0.03087040
442.00   3.16413924   0.03108063
443.00   3.16081175   0.03129181
444.00   3.15747680   0.03150394
445.00   3.15413437   0.03171703
446.00   3.15078449   0.03193108
447.00   3.14742714   0.03214608
448.00   3.14406232   0.03236204
449.00   3.14069004   0.03257897
450.00   3.13731030   0.03279686
451.00   3.13392309   0.03301573
452.00   3.13052842   0.03323556
453.00   3.12712629   0.03345636
454.00   3.12371669   0.03367814
455.00   3.12029963   0.03390089
456.00   3.11687512   0.03412462
457.00   3.11344314   0.03434933
458.00   3.11000370   0.03457502
459.00   3.10655680   0.03480170
460.00   3.10310244   0.03502937
461.00   3.09964062   0.03525802
462.00   3.09617134   0.03548766
463.00   3.09269460   0.03571830
464.00   3.08921040   0.03594993
465.00   3.08571875   0.03618256
466.00   3.08221964   0.03641619
467.00   3.07871307   0.03665082
468.00   3.07519904   0.03688646
469.00   3.07167756   0.03712310
470.00   3.06814862   0.03736075
471.00   3.06461222   0.03759940
472.00   3.06106837   0.03783907
473.00   3.05751707   0.03807976
474.00   3.05395831   0.03832146
475.00   3.05039209   0.03856418
476.00   3.04681842   0.03880792
477.00   3.04323730   0.03905268
478.00   3.03964873   0.03929847
479.00   3.03605270   0.03954528
480.00   3.03244922   0.03979313
481.00   3.02883829   0.04004200
482.00   3.02521991   0.04029191
483.00   3.02159407   0.04054285
484.00   3.01796079   0.04079484
485.00   3.01432005   0.04104786
486.00   3.01067187   0.04130192
487.00   3.00701623   0.04155703
488.00   3.00335315   0.04181318
489.00   2.99968262   0.04207038
490.00   2.99600463   0.04232863
491.00   2.99231921   0.04258793
492.00   2.98862633   0.04284829
493.00   2.98492601   0.04310971
494.00   2.98121824   0.04337218
495.00   2.97750302   0.04363571
496.00   2.97378036   0.04390031
497.00   2.97005025   0.04416597
498.00   2.96631270   0.04443270
499.00   2.96256770   0.04470050
500.00   2.95881526   0.04496937
501.00   2.95505537   0.04523932
502.00   2.95128804   0.04551033
503.00   2.94751327   0.04578243
504.00   2.94373105   0.04605561
505.00   2.93994140   0.04632987
506.00   2.93614430   0.04660521
507.00   2.93233976   0.04688164
508.00   2.92852777   0.04715916
509.00   2.92470835   0.04743777
510.00   2.92088149   0.04771747
511.00   2.91704719   0.04799826
512.00   2.91320545   0.04828015
513.00   2.90935627   0.04856314
514.00   2.90549965   0.04884724
515.00   2.90163559   0.04913243
516.00   2.89776409   0.04941873
517.00   2.89388516   0.04970614
518.00   2.88999879   0.04999466
519.00   2.88610499   0.05028428
520.00   2.88220375   0.05057503
521.00   2.87829507   0.05086689
522.00   2.87437896   0.05115986
523.00   2.87045541   0.05145396
524.00   2.86652443   0.05174918
525.00   2.86258602   0.05204552
526.00   2.85864017   0.05234299
527.00   2.85468689   0.05264158
528.00   2.85072617   0.05294131
529.00   2.84675803   0.05324217
530.00   2.84278245   0.05354417
531.00   2.83879944   0.05384730
532.00   2.83480900   0.05415157
533.00   2.83081113   0.05445698
534.00   2.82680583   0.05476354
535.00   2.82279310   0.05507124
536.00   2.81877295   0.05538009
537.00   2.81474536   0.05569008
538.00   2.81071034   0.05600123
539.00   2.80666790   0.05631354
540.00   2.80261803   0.05662699
541.00   2.79856073   0.05694161
542.00   2.79449601   0.05725739
543.00   2.79042386   0.05757433
544.00   2.78634428   0.05789243
545.00   2.78225728   0.05821170
546.00   2.77816286   0.05853214
547.00   2.77406101   0.05885375
548.00   2.76995174   0.05917653
549.00   2.76583504   0.05950048
550.00   2.76171092   0.05982562
551.00   2.75757938   0.06015193
552.00   2.75344041   0.06047942
553.00   2.74929403   0.06080810
554.00   2.74514022   0.06113796
555.00   2.74097899   0.06146901
556.00   2.73681035   0.06180125
557.00   2.73263428   0.06213468
558.00   2.72845079   0.06246930
559.00   2.72425989   0.06280512
560.00   2.72006156   0.06314214
561.00   2.71585582   0.06348036
562.00   2.71164266   0.06381978
563.00   2.70742209   0.06416040
564.00   2.70319409   0.06450223
565.00   2.69895869   0.06484527
566.00   2.69471586   0.06518952
567.00   2.69046562   0.06553499
568.00   2.68620797   0.06588166
569.00   2.68194290   0.06622956
570.00   2.67767042   0.06657867
571.00   2.67339052   0.06692900
572.00   2.66910321   0.06728056
573.00   2.66480849   0.06763334
574.00   2.66050636   0.06798735
575.00   2.65619682   0.06834259
576.00   2.65187986   0.06869906
577.00   2.64755549   0.06905677
578.00   2.64322372   0.06941571
579.00   2.63888453   0.06977588
580.00   2.63453794   0.07013730
581.00   2.63018394   0.07049996
582.00   2.62582253   0.07086387
583.00   2.62145371   0.07122902
584.00   2.61707748   0.07159541
585.00   2.61269385   0.07196306
586.00   2.60830281   0.07233197
587.00   2.60390436   0.07270212
588.00   2.59949851   0.07307353
589.00   2.59508526   0.07344621
590.00   2.59066460   0.07382014
591.00   2.58623654   0.07419533
592.00   2.58180107   0.07457179
593.00   2.57735820   0.07494952
594.00   2.57290793   0.07532852
595.00   2.56845025   0.07570879
596.00   2.56398518   0.07609033
597.00   2.55951270   0.07647315
598.00   2.55503282   0.07685724
599.00   2.55054555   0.07724262
600.00   2.54605087   0.07762928
601.00   2.54154880   0.07801722
602.00   2.53703932   0.07840644
603.00   2.53252245   0.07879696
604.00   2.52799818   0.07918876
605.00   2.52346651   0.07958186
606.00   2.51892745   0.07997625
607.00   2.51438099   0.08037194
608.00   2.50982714   0.08076893
609.00   2.50526589   0.08116722
610.00   2.50069724   0.08156681
611.00   2.49612120   0.08196770
612.00   2.49153777   0.08236990
613.00   2.48694694   0.08277342
614.00   2.48234873   0.08317824
615.00   2.47774312   0.08358437
616.00   2.47313011   0.08399183
617.00   2.46850972   0.08440059
618.00   2.46388194   0.08481068
619.00   2.45924676   0.08522209
620.00   2.45460420   0.08563482
621.00   2.44995425   0.08604888
622.00   2.44529691   0.08646427
623.00   2.44063218   0.08688099
624.00   2.43596006   0.08729904
625.00   2.43128056   0.08771842
626.00   2.42659367   0.08813914
627.00   2.42189939   0.08856120
628.00   2.41719773   0.08898459
629.00   2.41248868   0.08940933
630.00   2.40777225   0.08983542
631.00   2.40304843   0.09026285
632.00   2.39831723   0.09069163
633.00   2.39357865   0.09112176
634.00   2.38883269   0.09155325
635.00   2.38407934   0.09198608
636.00   2.37931861   0.09242028
637.00   2.37455050   0.09285584
638.00   2.36977501   0.09329275
639.00   2.36499214   0.09373103
640.00   2.36020190   0.09417068
641.00   2.35540427   0.09461169
642.00   2.35059926   0.09505407
643.00   2.34578688   0.09549782
644.00   2.34096712   0.09594295
645.00   2.33613998   0.09638946
646.00   2.33130546   0.09683734
647.00   2.32646357   0.09728660
648.00   2.32161431   0.09773724
649.00   2.31675767   0.09818927
650.00   2.31189365   0.09864268
651.00   2.30702227   0.09909748
652.00   2.30214351   0.09955368
653.00   2.29725737   0.10001126
654.00   2.29236387   0.10047024
655.00   2.28746299   0.10093062
656.00   2.28255474   0.10139239
657.00   2.27763912   0.10185557
658.00   2.27271613   0.10232014
659.00   2.26778578   0.10278613
660.00   2.26284805   0.10325352
661.00   2.25790295   0.10372232
662.00   2.25295049   0.10419253
663.00   2.24799066   0.10466415
664.00   2.24302346   0.10513719
665.00   2.23804890   0.10561165
666.00   2.23306697   0.10608752
667.00   2.22807768   0.10656482
668.00   2.22308102   0.10704354
669.00   2.21807700   0.10752369
670.00   2.21306561   0.10800527
671.00   2.20804686   0.10848827
672.00   2.20302075   0.10897271
673.00   2.19798728   0.10945858
674.00   2.19294644   0.10994588
675.00   2.18789825   0.11043463
676.00   2.18284269   0.11092481
677.00   2.17777978   0.11141644
678.00   2.17270950   0.11190951
679.00   2.16763187   0.11240403
680.00   2.16254688   0.11290000
681.00   2.15745453   0.11339742
682.00   2.15235483   0.11389629
683.00   2.14724776   0.11439661
684.00   2.14213335   0.11489840
685.00   2.13701157   0.11540164
686.00   2.13188245   0.11590634
687.00   2.12674596   0.11641250
688.00   2.12160213   0.11692013
689.00   2.11645094   0.11742923
690.00   2.11129240   0.11793980
691.00   2.10612651   0.11845184
692.00   2.10095326   0.11896535
693.00   2.09577267   0.11948033
694.00   2.09058472   0.11999680
695.00   2.08538943   0.12051474
696.00   2.08018678   0.12103417
697.00   2.07497679   0.12155508
698.00   2.06975945   0.12207747
699.00   2.06453476   0.12260136
700.00   2.05930273   0.12312673
701.00   2.05406335   0.12365359
702.00   2.04881662   0.12418195
703.00   2.04356255   0.12471181
704.00   2.03830113   0.12524316
705.00   2.03303237   0.12577602
706.00   2.02775627   0.12631037
707.00   2.02247282   0.12684623
708.00   2.01718203   0.12738360
709.00   2.01188390   0.12792248
710.00   2.00657843   0.12846287
711.00   2.00126561   0.12900476
712.00   1.99594546   0.12954818
713.00   1.99061797   0.13009311
714.00   1.98528314   0.13063956
715.00   1.97994097   0.13118753
716.00   1.97459146   0.13173702
717.00   1.96923461   0.13228804
718.00   1.96387043   0.13284059
719.00   1.95849892   0.13339467
720.00   1.95312006   0.13395027
721.00   1.94773388   0.13450741
722.00   1.94234035   0.13506609
723.00   1.93693950   0.13562630
724.00   1.93153131   0.13618805
725.00   1.92611579   0.13675135
726.00   1.92069294   0.13731618
727.00   1.91526275   0.13788257
728.00   1.90982524   0.13845050
729.00   1.90438039   0.13901998
730.00   1.89892822   0.13959101
731.00   1.89346871   0.14016360
732.00   1.88800188   0.14073774
733.00   1.88252772   0.14131345
734.00   1.87704623   0.14189071
735.00   1.87155742   0.14246953
736.00   1.86606128   0.14304992
737.00   1.86055782   0.14363187
738.00   1.85504703   0.14421539
739.00   1.84952891   0.14480049
740.00   1.84400347   0.14538715
741.00   1.83847071   0.14597539
742.00   1.83293063   0.14656521
743.00   1.82738322   0.14715660
744.00   1.82182850   0.14774958
745.00   1.81626645   0.14834414
746.00   1.81069708   0.14894028
747.00   1.80512040   0.14953801
748.00   1.79953639   0.15013733
749.00   1.79394507   0.15073824
750.00   1.78834643   0.15134075
751.00   1.78274047   0.15194484
752.00   1.77712719   0.15255054
753.00   1.77150660   0.15315783
754.00   1.76587870   0.15376673
755.00   1.76024348   0.15437723
756.00   1.75460094   0.15498934
757.00   1.74895109   0.15560305
758.00   1.74329393   0.15621837
759.00   1.73762946   0.15683530
760.00   1.73195768   0.15745385
761.00   1.72627858   0.15807401
762.00   1.72059217   0.15869579
763.00   1.71489846   0.15931919
764.00   1.70919743   0.15994421
765.00   1.70348910   0.16057086
766.00   1.69777346   0.16119913
767.00   1.69205051   0.16182903
768.00   1.68632026   0.16246056
769.00   1.68058269   0.16309372
770.00   1.67483783   0.16372852
771.00   1.66908566   0.16436495
772.00   1.66332618   0.16500302
773.00   1.65755940   0.16564273
774.00   1.65178532   0.16628408
775.00   1.64600394   0.16692708
776.00   1.64021525   0.16757172
777.00   1.63441926   0.16821801
778.00   1.62861598   0.16886595
779.00   1.62280539   0.16951555
780.00   1.61698750   0.17016680
781.00   1.61116232   0.17081970
782.00   1.60532983   0.17147427
783.00   1.59949005   0.17213049
784.00   1.59364298   0.17278838
785.00   1.58778860   0.17344793
786.00   1.58192693   0.17410915
787.00   1.57605797   0.17477204
788.00   1.57018171   0.17543660
789.00   1.56429816   0.17610283
790.00   1.55840732   0.17677074
791.00   1.55250918   0.17744032
792.00   1.54660375   0.17811159
793.00   1.54069104   0.17878453
794.00   1.53477103   0.17945916
795.00   1.52884373   0.18013547
796.00   1.52290914   0.18081347
797.00   1.51696726   0.18149316
798.00   1.51101810   0.18217454
799.00   1.50506165   0.18285762
800.00   1.49909791   0.18354238
801.00   1.49312689   0.18422885
802.00   1.48714858   0.18491702
803.00   1.48116299   0.18560689
804.00   1.47517011   0.18629846
805.00   1.46916995   0.18699173
806.00   1.46316250   0.18768672
807.00   1.45714778   0.18838341
808.00   1.45112577   0.18908182
809.00   1.44509649   0.18978194
810.00   1.43905992   0.19048378
811.00   1.43301607   0.19118733
812.00   1.42696495   0.19189260
813.00   1.42090654   0.19259960
814.00   1.41484086   0.19330832
815.00   1.40876790   0.19401876
816.00   1.40268767   0.19473094
817.00   1.39660016   0.19544484
818.00   1.39050538   0.19616048
819.00   1.38440332   0.19687785
820.00   1.37829398   0.19759695
821.00   1.37217738   0.19831780
822.00   1.36605350   0.19904038
823.00   1.35992235   0.19976471
824.00   1.35378393   0.20049078
825.00   1.34763824   0.20121859
826.00   1.34148529   0.20194816
827.00   1.33532506   0.20267948
828.00   1.32915756   0.20341254
829.00   1.32298280   0.20414737
830.00   1.31680077   0.20488395
831.00   1.31061147   0.20562228
832.00   1.30441491   0.20636238
833.00   1.29821108   0.20710424
834.00   1.29199999   0.20784787
835.00   1.28578163   0.20859326
836.00   1.27955601   0.20934042
837.00   1.27332313   0.21008935
838.00   1.26708299   0.21084006
839.00   1.26083559   0.21159253
840.00   1.25458092   0.21234679
841.00   1.24831900   0.21310282
842.00   1.24204982   0.21386064
843.00   1.23577338   0.21462024
844.00   1.22948968   0.21538162
845.00   1.22319872   0.21614479
846.00   1.21690051   0.21690975
847.00   1.21059505   0.21767650
848.00   1.20428233   0.21844504
849.00   1.19796235   0.21921538
850.00   1.19163512   0.21998751
851.00   1.18530064   0.22076145
852.00   1.17895891   0.22153718
853.00   1.17260992   0.22231472
854.00   1.16625369   0.22309406
855.00   1.15989020   0.22387521
856.00   1.15351947   0.22465817
857.00   1.14714148   0.22544294
858.00   1.14075625   0.22622953
859.00   1.13436377   0.22701793
860.00   1.12796404   0.22780814
861.00   1.12155707   0.22860018
862.00   1.11514286   0.22939404
863.00   1.10872139   0.23018972
864.00   1.10229269   0.23098722
865.00   1.09585674   0.23178655
866.00   1.08941355   0.23258772
867.00   1.08296311   0.23339071
868.00   1.07650544   0.23419554
869.00   1.07004053   0.23500220
870.00   1.06356837   0.23581070
871.00   1.05708898   0.23662104
872.00   1.05060235   0.23743322
873.00   1.04410848   0.23824724
874.00   1.03760737   0.23906311
875.00   1.03109903   0.23988083
876.00   1.02458345   0.24070040
877.00   1.01806064   0.24152182
878.00   1.01153059   0.24234509
879.00   1.00499331   0.24317022
880.00   0.99844879   0.24399720
881.00   0.99189705   0.24482605
882.00   0.98533807   0.24565675
883.00   0.97877186   0.24648932
884.00   0.97219843   0.24732376
885.00   0.96561776   0.24816006
886.00   0.95902986   0.24899824
887.00   0.95243474   0.24983828
888.00   0.94583239   0.25068020
889.00   0.93922281   0.25152399
890.00   0.93260601   0.25236967
891.00   0.92598198   0.25321722
892.00   0.91935073   0.25406665
893.00   0.91271226   0.25491797
894.00   0.90606656   0.25577117
895.00   0.89941364   0.25662626
896.00   0.89275350   0.25748324
897.00   0.88608613   0.25834212
898.00   0.87941155   0.25920288
899.00   0.87272975   0.26006555
900.00   0.86604073   0.26093011
901.00   0.85934449   0.26179657
902.00   0.85264104   0.26266493
903.00   0.84593036   0.26353519
904.00   0.83921248   0.26440736
905.00   0.83248737   0.26528144
906.00   0.82575506   0.26615743
907.00   0.81901553   0.26703533
908.00   0.81226878   0.26791515
909.00   0.80551483   0.26879688
910.00   0.79875366   0.26968053
911.00   0.79198529   0.27056610
912.00   0.78520970   0.27145359
913.00   0.77842690   0.27234300
914.00   0.77163690   0.27323434
915.00   0.76483968   0.27412761
916.00   0.75803527   0.27502281
917.00   0.75122364   0.27591994
918.00   0.74440481   0.27681900
919.00   0.73757877   0.27772000
920.00   0.73074553   0.27862294
921.00   0.72390509   0.27952782
922.00   0.71705744   0.28043464
923.00   0.71020259   0.28134340
924.00   0.70334054   0.28225411
925.00   0.69647129   0.28316677
926.00   0.68959484   0.28408138
927.00   0.68271120   0.28499794
928.00   0.67582035   0.28591645
929.00   0.66892231   0.28683692
930.00   0.66201706   0.28775935
931.00   0.65510463   0.28868373
932.00   0.64818499   0.28961008
933.00   0.64125817   0.29053840
934.00   0.63432415   0.29146867
935.00   0.62738293   0.29240092
936.00   0.62043453   0.29333514
937.00   0.61347893   0.29427133
938.00   0.60651614   0.29520949
939.00   0.59954616   0.29614963
940.00   0.59256900   0.29709174
941.00   0.58558464   0.29803584
942.00   0.57859310   0.29898192
943.00   0.57159436   0.29992998
944.00   0.56458845   0.30088003
945.00   0.55757534   0.30183206
946.00   0.55055506   0.30278609
947.00   0.54352758   0.30374210
948.00   0.53649293   0.30470011
949.00   0.52945109   0.30566012
950.00   0.52240207   0.30662212
951.00   0.51534587   0.30758613
952.00   0.50828249   0.30855213
953.00   0.50121193   0.30952014
954.00   0.49413419   0.31049016
955.00   0.48704927   0.31146218
956.00   0.47995718   0.31243622
957.00   0.47285791   0.31341226
958.00   0.46575146   0.31439032
959.00   0.45863784   0.31537039
960.00   0.45151704   0.31635249
961.00   0.44438907   0.31733660
962.00   0.43725393   0.31832273
963.00   0.43011161   0.31931089
964.00   0.42296213   0.32030107
965.00   0.41580547   0.32129328
966.00   0.40864164   0.32228752
967.00   0.40147065   0.32328379
968.00   0.39429249   0.32428210
969.00   0.38710715   0.32528244
970.00   0.37991466   0.32628481
971.00   0.37271499   0.32728923
972.00   0.36550817   0.32829569
973.00   0.35829417   0.32930419
974.00   0.35107302   0.33031474
975.00   0.34384470   0.33132734
976.00   0.33660922   0.33234198
977.00   0.32936658   0.33335868
978.00   0.32211677   0.33437743
979.00   0.31485981   0.33539823
980.00   0.30759569   0.33642109
981.00   0.30032441   0.33744602
982.00   0.29304598   0.33847300
983.00   0.28576038   0.33950204
984.00   0.27846763   0.34053316
985.00   0.27116773   0.34156633
986.00   0.26386067   0.34260158
987.00   0.25654646   0.34363890
988.00   0.24922510   0.34467829
989.00   0.24189658   0.34571976
990.00   0.23456091   0.34676331
991.00   0.22721810   0.34780893
992.00   0.21986813   0.34885663
993.00   0.21251101   0.34990642
994.00   0.20514675   0.35095830
995.00   0.19777534   0.35201226
996.00   0.19039678   0.35306830
997.00   0.18301108   0.35412644
998.00   0.17561823   0.35518668
999.00   0.16821824   0.35624901
1000.00   0.16081110   0.35731343
1001.00   0.15339682   0.35837995
1002.00   0.14597540   0.35944858
1003.00   0.13854684   0.36051930
1004.00   0.13111114   0.36159214
1005.00   0.12366830   0.36266707
1006.00   0.11621833   0.36374412
1007.00   0.10876121   0.36482328
1008.00   0.10129696   0.36590455
1009.00   0.09382557   0.36698794
1010.00   0.08634704   0.36807344
1011.00   0.07886138   0.36916106
1012.00   0.07136859   0.37025080
1013.00   0.06386867   0.37134266
1014.00   0.05636161   0.37243665
1015.00   0.04884742   0.37353276
1016.00   0.04132610   0.37463101
1017.00   0.03379765   0.37573138
1018.00   0.02626207   0.37683388
1019.00   0.01871937   0.37793852
1020.00   0.01116953   0.37904530
1021.00   0.00361257   0.38015421
1022.00  -0.00395151   0.38126527
1023.00  -0.01152272   0.38237846
1024.00  -0.01910106   0.38349381
1025.00  -0.02668652   0.38461129
1026.00  -0.03427910   0.38573093
1027.00  -0.04187880   0.38685271
1028.00  -0.04948562   0.38797665
1029.00  -0.05709957   0.38910274
1030.00  -0.06472063   0.39023098
1031.00  -0.07234881   0.39136139
1032.00  -0.07998411   0.39249395
1033.00  -0.08762653   0.39362868
1034.00  -0.09527606   0.39476557
1035.00  -0.10293270   0.39590462
1036.00  -0.11059647   0.39704585
1037.00  -0.11826734   0.39818924
1038.00  -0.12594533   0.39933480
1039.00  -0.13363043   0.40048254
1040.00  -0.14132264   0.40163245
1041.00  -0.14902196   0.40278454
1042.00  -0.15672839   0.40393881
1043.00  -0.16444193   0.40509526
1044.00  -0.17216257   0.40625390
1045.00  -0.17989033   0.40741472
1046.00  -0.18762519   0.40857772
1047.00  -0.19536715   0.40974292
1048.00  -0.20311622   0.41091031
1049.00  -0.21087240   0.41207989
1050.00  -0.21863567   0.41325166
1051.00  -0.22640605   0.41442563
1052.00  -0.23418353   0.41560181
1053.00  -0.24196811   0.41678018
1054.00  -0.24975979   0.41796075
1055.00  -0.25755857   0.41914353
1056.00  -0.26536445   0.42032852
1057.00  -0.27317742   0.42151571
1058.00  -0.28099749   0.42270512
1059.00  -0.28882466   0.42389674
1060.00  -0.29665892   0.42509057
1061.00  -0.30450027   0.42628662
1062.00  -0.31234872   0.42748489
1063.00  -0.32020425   0.42868538
1064.00  -0.32806688   0.42988809
1065.00  -0.33593660   0.43109302
1066.00  -0.34381341   0.43230018
1067.00  -0.35169731   0.43350957
1068.00  -0.35958830   0.43472119
1069.00  -0.36748637   0.43593504
1070.00  -0.37539153   0.43715113
1071.00  -0.38330378   0.43836945
1072.00  -0.39122311   0.43959001
1073.00  -0.39914952   0.44081281
1074.00  -0.40708302   0.44203785
1075.00  -0.41502360   0.44326514
1076.00  -0.42297126   0.44449467
1077.00  -0.43092600   0.44572644
1078.00  -0.43888782   0.44696047
1079.00  -0.44685672   0.44819675
1080.00  -0.45483269   0.44943528
1081.00  -0.46281575   0.45067607
1082.00  -0.47080588   0.45191912
1083.00  -0.47880308   0.45316442
1084.00  -0.48680736   0.45441199
1085.00  -0.49481871   0.45566182
1086.00  -0.50283714   0.45691391
1087.00  -0.51086264   0.45816827
1088.00  -0.51889521   0.45942490
1089.00  -0.52693484   0.46068380
1090.00  -0.53498155   0.46194498
1091.00  -0.54303533   0.46320843
1092.00  -0.55109617   0.46447415
1093.00  -0.55916408   0.46574216
1094.00  -0.56723906   0.46701244
1095.00  -0.57532110   0.46828501
1096.00  -0.58341021   0.46955986
1097.00  -0.59150638   0.47083700
1098.00  -0.59960961   0.47211642
1099.00  -0.60771990   0.47339814
1100.00  -0.61583726   0.47468215
1101.00  -0.62396167   0.47596845
1102.00  -0.63209314   0.47725705
1103.00  -0.64023167   0.47854795
1104.00  -0.64837726   0.47984115
1105.00  -0.65652991   0.48113665
1106.00  -0.66468961   0.48243445
1107.00  -0.67285636   0.48373456
1108.00  -0.68103017   0.48503697
1109.00  -0.68921104   0.48634170
1110.00  -0.69739895   0.48764874
1111.00  -0.70559392   0.48895809
1112.00  -0.71379593   0.49026976
1113.00  -0.72200500   0.49158374
1114.00  -0.73022111   0.49290004
1115.00  -0.73844427   0.49421867
1116.00  -0.74667448   0.49553961
1117.00  -0.75491174   0.49686289
1118.00  -0.76315604   0.49818849
1119.00  -0.77140738   0.49951641
1120.00  -0.77966577   0.50084667
1121.00  -0.78793120   0.50217926
1122.00  -0.79620367   0.50351419
1123.00  -0.80448318   0.50485145
1124.00  -0.81276974   0.50619105
1125.00  -0.82106333   0.50753300
1126.00  -0.82936396   0.50887728
1127.00  -0.83767162   0.51022391
1128.00  -0.84598633   0.51157288
1129.00  -0.85430807   0.51292421
1130.00  -0.86263684   0.51427788
1131.00  -0.87097265   0.51563390
1132.00  -0.87931549   0.51699228
1133.00  -0.88766536   0.51835302
1134.00  -0.89602226   0.51971611
1135.00  -0.90438620   0.52108156
1136.00  -0.91275716   0.52244938
1137.00  -0.92113515   0.52381955
1138.00  -0.92952017   0.52519209
1139.00  -0.93791222   0.52656700
1140.00  -0.94631129   0.52794428
1141.00  -0.95471739   0.52932393
1142.00  -0.96313051   0.53070596
1143.00  -0.97155065   0.53209035
1144.00  -0.97997782   0.53347713
1145.00  -0.98841200   0.53486628
1146.00  -0.99685321   0.53625782
1147.00  -1.00530144   0.53765174
1148.00  -1.01375668   0.53904804
1149.00  -1.02221895   0.54044673
1150.00  -1.03068823   0.54184780
1151.00  -1.03916452   0.54325127
1152.00  -1.04764784   0.54465713
1153.00  -1.05613816   0.54606538
1154.00  -1.06463550   0.54747603
1155.00  -1.07313985   0.54888908
1156.00  -1.08165122   0.55030453
1157.00  -1.09016959   0.55172238
1158.00  -1.09869497   0.55314263
1159.00  -1.10722736   0.55456529
1160.00  -1.11576676   0.55599035
1161.00  -1.12431317   0.55741783
1162.00  -1.13286658   0.55884772
1163.00  -1.14142700   0.56028002
1164.00  -1.14999443   0.56171473
1165.00  -1.15856885   0.56315186
1166.00  -1.16715028   0.56459141
1167.00  -1.17573871   0.56603339
1168.00  -1.18433414   0.56747778
1169.00  -1.19293657   0.56892460
1170.00  -1.20154600   0.57037385
1171.00  -1.21016243   0.57182552
1172.00  -1.21878585   0.57327962
1173.00  -1.22741627   0.57473616
1174.00  -1.23605369   0.57619513
1175.00  -1.24469810   0.57765654
1176.00  -1.25334950   0.57912039
1177.00  -1.26200790   0.58058667
1178.00  -1.27067328   0.58205540
1179.00  -1.27934566   0.58352657
1180.00  -1.28802503   0.58500019
1181.00  -1.29671139   0.58647625
1182.00  -1.30540473   0.58795476
1183.00  -1.31410506   0.58943573
1184.00  -1.32281238   0.59091915
1185.00  -1.33152668   0.59240502
1186.00  -1.34024797   0.59389335
1187.00  -1.34897624   0.59538414
1188.00  -1.35771149   0.59687739
1189.00  -1.36645373   0.59837310
1190.00  -1.37520294   0.59987128
1191.00  -1.38395914   0.60137192
1192.00  -1.39272231   0.60287503
1193.00  -1.40149246   0.60438061
1194.00  -1.41026959   0.60588867
1195.00  -1.41905369   0.60739920
1196.00  -1.42784477   0.60891220
1197.00  -1.43664282   0.61042768
1198.00  -1.44544785   0.61194565
1199.00  -1.45425985   0.61346609
1200.00  -1.46307882   0.61498902
1201.00  -1.47190475   0.61651443
1202.00  -1.48073766   0.61804233
1203.00  -1.48957754   0.61957272
1204.00  -1.49842439   0.62110560
1205.00  -1.50727820   0.62264097
1206.00  -1.51613898   0.62417884
1207.00  -1.52500672   0.62571920
1208.00  -1.53388142   0.62726207
1209.00  -1.54276309   0.62880743
1210.00  -1.55165172   0.63035530
1211.00  -1.56054732   0.63190567
1212.00  -1.56944987   0.63345855
1213.00  -1.57835938   0.63501393
1214.00  -1.58727585   0.63657183
1215.00  -1.59619928   0.63813223
1216.00  -1.60512966   0.63969515
1217.00  -1.61406700   0.64126059
1218.00  -1.62301129   0.64282854
1219.00  -1.63196254   0.64439902
1220.00  -1.64092074   0.64597201
1221.00  -1.64988589   0.64754753
1222.00  -1.65885799   0.64912557
1223.00  -1.66783704   0.65070614
1224.00  -1.67682304   0.65228924
1225.00  -1.68581599   0.65387487
1226.00  -1.69481588   0.65546303
1227.00  -1.70382272   0.65705373
1228.00  -1.71283651   0.65864696
1229.00  -1.72185724   0.66024273
1230.00  -1.73088491   0.66184104
1231.00  -1.73991953   0.66344190
1232.00  -1.74896108   0.66504529
1233.00  -1.75800958   0.66665124
1234.00  -1.76706502   0.66825973
1235.00  -1.77612739   0.66987077
1236.00  -1.78519670   0.67148436
1237.00  -1.79427295   0.67310050
1238.00  -1.80335613   0.67471920
1239.00  -1.81244625   0.67634046
1240.00  -1.82154330   0.67796427
1241.00  -1.83064729   0.67959065
1242.00  -1.83975821   0.68121959
1243.00  -1.84887605   0.68285109
1244.00  -1.85800083   0.68448516
1245.00  -1.86713253   0.68612180
1246.00  -1.87627117   0.68776101
1247.00  -1.88541673   0.68940279
1248.00  -1.89456922   0.69104714
1249.00  -1.90372863   0.69269407
1250.00  -1.91289496   0.69434358
1251.00  -1.92206822   0.69599566
1252.00  -1.93124840   0.69765033
1253.00  -1.94043550   0.69930758
1254.00  -1.94962952   0.70096742
1255.00  -1.95883047   0.70262984
1256.00  -1.96803832   0.70429485
1257.00  -1.97725310   0.70596246
1258.00  -1.98647479   0.70763265
1259.00  -1.99570340   0.70930544
1260.00  -2.00493892   0.71098083
1261.00  -2.01418136   0.71265881
1262.00  -2.02343071   0.71433939
1263.00  -2.03268697   0.71602258
1264.00  -2.04195014   0.71770837
1265.00  -2.05122022   0.71939676
1266.00  -2.06049721   0.72108777
1267.00  -2.06978110   0.72278138
1268.00  -2.07907190   0.72447760
1269.00  -2.08836961   0.72617644
1270.00  -2.09767423   0.72787789
1271.00  -2.10698574   0.72958196
1272.00  -2.11630416   0.73128864
1273.00  -2.12562948   0.73299795
1274.00  -2.13496170   0.73470988
1275.00  -2.14430082   0.73642443
1276.00  -2.15364684   0.73814161
1277.00  -2.16299976   0.73986142
1278.00  -2.17235958   0.74158386
1279.00  -2.18172629   0.74330893
1280.00  -2.19109989   0.74503663
1281.00  -2.20048039   0.74676697
1282.00  -2.20986778   0.74849994
1283.00  -2.21926207   0.75023556
1284.00  -2.22866324   0.75197381
1285.00  -2.23807131   0.75371471
1286.00  -2.24748626   0.75545825
1287.00  -2.25690810   0.75720444
1288.00  -2.26633683   0.75895328
1289.00  -2.27577245   0.76070477
1290.00  -2.28521495   0.76245890
1291.00  -2.29466433   0.76421570
1292.00  -2.30412060   0.76597515
1293.00  -2.31358375   0.76773725
1294.00  -2.32305378   0.76950202
1295.00  -2.33253069   0.77126945
1296.00  -2.34201448   0.77303954
1297.00  -2.35150514   0.77481229
1298.00  -2.36100269   0.77658772
1299.00  -2.37050711   0.77836581
1300.00  -2.38001840   0.78014657
1301.00  -2.38953657   0.78193000
1302.00  -2.39906162   0.78371611
1303.00  -2.40859353   0.78550489
1304.00  -2.41813232   0.78729636
1305.00  -2.42767797   0.78909050
1306.00  -2.43723050   0.79088732
1307.00  -2.44678989   0.79268683
1308.00  -2.45635615   0.79448902
1309.00  -2.46592928   0.79629390
1310.00  -2.47550927   0.79810147
1311.00  -2.48509612   0.79991173
1312.00  -2.49468984   0.80172468
1313.00  -2.50429042   0.80354033
1314.00  -2.51389786   0.80535867
1315.00  -2.52351217   0.80717971
1316.00  -2.53313333   0.80900345
1317.00  -2.54276135   0.81082990
1318.00  -2.55239622   0.81265904
1319.00  -2.56203795   0.81449090
1320.00  -2.57168654   0.81632545
1321.00  -2.58134198   0.81816272
1322.00  -2.59100428   0.82000270
1323.00  -2.60067342   0.82184540
1324.00  -2.61034942   0.82369080
1325.00  -2.62003227   0.82553893
1326.00  -2.62972197   0.82738977
1327.00  -2.63941851   0.82924333
1328.00  -2.64912190   0.83109962
1329.00  -2.65883214   0.83295863
1330.00  -2.66854922   0.83482036
1331.00  -2.67827315   0.83668482
1332.00  -2.68800392   0.83855202
1333.00  -2.69774153   0.84042194
1334.00  -2.70748598   0.84229459
1335.00  -2.71723727   0.84416999
1336.00  -2.72699540   0.84604811
1337.00  -2.73676037   0.84792898
1338.00  -2.74653218   0.84981259
1339.00  -2.75631082   0.85169893
1340.00  -2.76609629   0.85358803
1341.00  -2.77588860   0.85547987
1342.00  -2.78568775   0.85737445
1343.00  -2.79549372   0.85927179
1344.00  -2.80530652   0.86117188
1345.00  -2.81512616   0.86307472
1346.00  -2.82495262   0.86498031
1347.00  -2.83478591   0.86688867
1348.00  -2.84462603   0.86879978
1349.00  -2.85447297   0.87071365
1350.00  -2.86432674   0.87263028
1351.00  -2.87418733   0.87454968
1352.00  -2.88405475   0.87647184
1353.00  -2.89392898   0.87839678
1354.00  -2.90381004   0.88032448
1355.00  -2.91369791   0.88225495
1356.00  -2.92359260   0.88418820
1357.00  -2.93349411   0.88612422
1358.00  -2.94340244   0.88806302
1359.00  -2.95331758   0.89000459
1360.00  -2.96323954   0.89194895
1361.00  -2.97316831   0.89389609
1362.00  -2.98310389   0.89584601
1363.00  -2.99304628   0.89779872
1364.00  -3.00299549   0.89975422
1365.00  -3.01295150   0.90171251
1366.00  -3.02291432   0.90367359
1367.00  -3.03288394   0.90563746
1368.00  -3.04286038   0.90760413
1369.00  -3.05284362   0.90957359
1370.00  -3.06283366   0.91154586
1371.00  -3.07283050   0.91352092
1372.00  -3.08283415   0.91549878
1373.00  -3.09284459   0.91747945
1374.00  -3.10286184   0.91946293
1375.00  -3.11288589   0.92144921
1376.00  -3.12291673   0.92343831
1377.00  -3.13295437   0.92543021
1378.00  -3.14299880   0.92742493
1379.00  -3.15305003   0.92942246
1380.00  -3.16310806   0.93142281
1381.00  -3.17317287   0.93342598
1382.00  -3.18324448   0.93543197
1383.00  -3.19332288   0.93744078
1384.00  -3.20340806   0.93945242
1385.00  -3.21350004   0.94146688
1386.00  -3.22359880   0.94348417
1387.00  -3.23370435   0.94550428
1388.00  -3.24381668   0.94752723
1389.00  -3.25393580   0.94955302
1390.00  -3.26406170   0.95158163
1391.00  -3.27419438   0.95361309
1392.00  -3.28433384   0.95564738
1393.00  -3.29448008   0.95768451
1394.00  -3.30463310   0.95972449
1395.00  -3.31479290   0.96176731
1396.00  -3.32495948   0.96381297
1397.00  -3.33513283   0.96586149
1398.00  -3.34531295   0.96791285
1399.00  -3.35549985   0.96996706
1400.00  -3.36569352   0.97202413
1401.00  -3.37589397   0.97408405
1402.00  -3.38610118   0.97614682
1403.00  -3.39631516   0.97821246
1404.00  -3.40653591   0.98028095
1405.00  -3.41676343   0.98235231
1406.00  -3.42699771   0.98442653
1407.00  -3.43723876   0.98650362
1408.00  -3.44748657   0.98858357
1409.00  -3.45774115   0.99066640
1410.00  -3.46800249   0.99275209
1411.00  -3.47827058   0.99484066
1412.00  -3.48854544   0.99693210
1413.00  -3.49882706   0.99902642
1414.00  -3.50911543   1.00112361
1415.00  -3.51941056   1.00322369
1416.00  -3.52971245   1.00532664
1417.00  -3.54002109   1.00743248
1418.00  -3.55033648   1.00954121
1419.00  -3.56065862   1.01165282
1420.00  -3.57098752   1.01376732
1421.00  -3.58132317   1.01588472
1422.00  -3.59166556   1.01800500
1423.00  -3.60201470   1.02012818
1424.00  -3.61237059   1.02225426
1425.00  -3.62273323   1.02438323
1426.00  -3.63310261   1.02651510
1427.00  -3.64347873   1.02864987
1428.00  -3.65386160   1.03078755
1429.00  -3.66425121   1.03292813
1430.00  -3.67464755   1.03507162
1431.00  -3.68505064   1.03721802
1432.00  -3.69546047   1.03936732
1433.00  -3.70587703   1.04151954
1434.00  -3.71630033   1.04367468
1435.00  -3.72673036   1.04583273
1436.00  -3.73716713   1.04799369
1437.00  -3.74761063   1.05015758
1438.00  -3.75806086   1.05232438
1439.00  -3.76851783   1.05449411
1440.00  -3.77898152   1.05666677
1441.00  -3.78945194   1.05884235
1442.00  -3.79992909   1.06102085
1443.00  -3.81041296   1.06320229
1444.00  -3.82090356   1.06538666
1445.00  -3.83140089   1.06757396
1446.00  -3.84190493   1.06976420
1447.00  -3.85241570   1.07195738
1448.00  -3.86293319   1.07415349
1449.00  -3.87345740   1.07635255
1450.00  -3.88398833   1.07855454
1451.00  -3.89452597   1.08075948
1452.00  -3.90507034   1.08296737
1453.00  -3.91562142   1.08517820
1454.00  -3.92617921   1.08739199
1455.00  -3.93674371   1.08960872
1456.00  -3.94731493   1.09182841
1457.00  -3.95789286   1.09405105
1458.00  -3.96847750   1.09627665
1459.00  -3.97906884   1.09850521
1460.00  -3.98966690   1.10073673
1461.00  -4.00027166   1.10297121
1462.00  -4.01088313   1.10520865
1463.00  -4.02150130   1.10744906
1464.00  -4.03212618   1.10969243
1465.00  -4.04275775   1.11193878
1466.00  -4.05339603   1.11418809
1467.00  -4.06404101   1.11644038
1468.00  -4.07469269   1.11869564
1469.00  -4.08535107   1.12095388
1470.00  -4.09601614   1.12321509
1471.00  -4.10668791   1.12547929
1472.00  -4.11736637   1.12774646
1473.00  -4.12805153   1.13001662
1474.00  -4.13874338   1.13228977
1475.00  -4.14944192   1.13456590
1476.00  -4.16014715   1.13684501
1477.00  -4.17085906   1.13912712
1478.00  -4.18157767   1.14141222
1479.00  -4.19230297   1.14370032
1480.00  -4.20303495   1.14599141
1481.00  -4.21377361   1.14828549
1482.00  -4.22451896   1.15058258
1483.00  -4.23527099   1.15288266
1484.00  -4.24602970   1.15518575
1485.00  -4.25679509   1.15749185
1486.00  -4.26756716   1.15980094
1487.00  -4.27834591   1.16211305
1488.00  -4.28913134   1.16442816
1489.00  -4.29992344   1.16674629
1490.00  -4.31072222   1.16906743
1491.00  -4.32152767   1.17139158
1492.00  -4.33233979   1.17371876
1493.00  -4.34315858   1.17604894
1494.00  -4.35398405   1.17838215
1495.00  -4.36481618   1.18071838
1496.00  -4.37565498   1.18305764
1497.00  -4.38650045   1.18539992
1498.00  -4.39735258   1.18774522
1499.00  -4.40821138   1.19009356
1500.00  -4.41907684   1.19244492
1501.00  -4.42994896   1.19479932
1502.00  -4.44082775   1.19715675
1503.00  -4.45171319   1.19951722
1504.00  -4.46260530   1.20188072
1505.00  -4.47350406   1.20424727
1506.00  -4.48440948   1.20661685
1507.00  -4.49532155   1.20898948
1508.00  -4.50624028   1.21136515
1509.00  -4.51716566   1.21374387
1510.00  -4.52809770   1.21612563
1511.00  -4.53903638   1.21851045
1512.00  -4.54998172   1.22089831
1513.00  -4.56093370   1.22328923
1514.00  -4.57189233   1.22568321
1515.00  -4.58285761   1.22808024
1516.00  -4.59382954   1.23048033
1517.00  -4.60480811   1.23288348
1518.00  -4.61579332   1.23528969
1519.00  -4.62678517   1.23769897
1520.00  -4.63778367   1.24011131
1521.00  -4.64878880   1.24252672
1522.00  -4.65980058   1.24494519
1523.00  -4.67081899   1.24736674
1524.00  -4.68184403   1.24979136
1525.00  -4.69287572   1.25221905
1526.00  -4.70391403   1.25464982
1527.00  -4.71495898   1.25708367
1528.00  -4.72601057   1.25952060
1529.00  -4.73706878   1.26196060
1530.00  -4.74813362   1.26440369
1531.00  -4.75920509   1.26684987
1532.00  -4.77028319   1.26929913
1533.00  -4.78136791   1.27175148
1534.00  -4.79245926   1.27420691
1535.00  -4.80355724   1.27666544
1536.00  -4.81466183   1.27912707
1537.00  -4.82577305   1.28159178
1538.00  -4.83689089   1.28405960
1539.00  -4.84801535   1.28653051
1540.00  -4.85914642   1.28900452
1541.00  -4.87028412   1.29148164
1542.00  -4.88142842   1.29396185
1543.00  -4.89257935   1.29644518
1544.00  -4.90373689   1.29893161
1545.00  -4.91490104   1.30142114
1546.00  -4.92607180   1.30391379
1547.00  -4.93724917   1.30640955
1548.00  -4.94843315   1.30890843
1549.00  -4.95962374   1.31141042
1550.00  -4.97082093   1.31391553
1551.00  -4.98202473   1.31642375
1552.00  -4.99323514   1.31893510
1553.00  -5.00445215   1.32144957
1554.00  -5.01567576   1.32396716
1555.00  -5.02690597   1.32648788
1556.00  -5.03814278   1.32901173
1557.00  -5.04938619   1.33153871
1558.00  -5.06063620   1.33406882
1559.00  -5.07189280   1.33660206
1560.00  -5.08315600   1.33913843
1561.00  -5.09442580   1.34167794
1562.00  -5.10570218   1.34422059
1563.00  -5.11698516   1.34676638
1564.00  -5.12827473   1.34931531
1565.00  -5.13957089   1.35186739
1566.00  -5.15087364   1.35442260
1567.00  -5.16218297   1.35698097
1568.00  -5.17349889   1.35954248
1569.00  -5.18482140   1.36210715
1570.00  -5.19615049   1.36467496
1571.00  -5.20748616   1.36724593
1572.00  -5.21882841   1.36982005
1573.00  -5.23017724   1.37239733
1574.00  -5.24153265   1.37497777
1575.00  -5.25289464   1.37756137
1576.00  -5.26426321   1.38014813
1577.00  -5.27563835   1.38273805
1578.00  -5.28702007   1.38533114
1579.00  -5.29840836   1.38792740
1580.00  -5.30980322   1.39052683
1581.00  -5.32120465   1.39312942
1582.00  -5.33261265   1.39573519
1583.00  -5.34402722   1.39834413
1584.00  -5.35544836   1.40095625
1585.00  -5.36687606   1.40357155
1586.00  -5.37831033   1.40619002
1587.00  -5.38975117   1.40881167
1588.00  -5.40119856   1.41143651
1589.00  -5.41265252   1.41406453
1590.00  -5.42411304   1.41669574
1591.00  -5.43558011   1.41933013
1592.00  -5.44705375   1.42196772
1593.00  -5.45853394   1.42460849
1594.00  -5.47002069   1.42725246
1595.00  -5.48151399   1.42989962
1596.00  -5.49301384   1.43254998
1597.00  -5.50452025   1.43520354
1598.00  -5.51603321   1.43786029
1599.00  -5.52755272   1.44052025
1600.00  -5.53907877   1.44318341
1601.00  -5.55061138   1.44584977
1602.00  -5.56215053   1.44851934
1603.00  -5.57369622   1.45119212
1604.00  -5.58524846   1.45386811
1605.00  -5.59680724   1.45654730
1606.00  -5.60837257   1.45922972
1607.00  -5.61994443   1.46191534
1608.00  -5.63152283   1.46460418
1609.00  -5.64310777   1.46729625
1610.00  -5.65469925   1.46999153
1611.00  -5.66629726   1.47269003
1612.00  -5.67790181   1.47539175
1613.00  -5.68951289   1.47809670
1614.00  -5.70113051   1.48080488
1615.00  -5.71275465   1.48351629
1616.00  -5.72438532   1.48623092
1617.00  -5.73602252   1.48894879
1618.00  -5.74766625   1.49166989
1619.00  -5.75931651   1.49439422
1620.00  -5.77097329   1.49712179
1621.00  -5.78263659   1.49985260
1622.00  -5.79430642   1.50258665
1623.00  -5.80598277   1.50532394
1624.00  -5.81766564   1.50806448
1625.00  -5.82935502   1.51080826
1626.00  -5.84105093   1.51355529
1627.00  -5.85275335   1.51630556
1628.00  -5.86446229   1.51905909
1629.00  -5.87617774   1.52181586
1630.00  -5.88789970   1.52457589
1631.00  -5.89962818   1.52733918
1632.00  -5.91136317   1.53010572
1633.00  -5.92310466   1.53287552
1634.00  -5.93485267   1.53564859
1635.00  -5.94660718   1.53842491
1636.00  -5.95836820   1.54120450
1637.00  -5.97013572   1.54398735
1638.00  -5.98190975   1.54677347
1639.00  -5.99369027   1.54956286
1640.00  -6.00547730   1.55235552
1641.00  -6.01727083   1.55515145
1642.00  -6.02907086   1.55795065
1643.00  -6.04087738   1.56075313
1644.00  -6.05269040   1.56355889
1645.00  -6.06450992   1.56636792
1646.00  -6.07633593   1.56918024
1647.00  -6.08816843   1.57199583
1648.00  -6.10000743   1.57481471
1649.00  -6.11185291   1.57763688
1650.00  -6.12370488   1.58046233
1651.00  -6.13556335   1.58329108
1652.00  -6.14742829   1.58612311
1653.00  -6.15929973   1.58895843
1654.00  -6.17117764   1.59179705
1655.00  -6.18306204   1.59463896
1656.00  -6.19495293   1.59748417
1657.00  -6.20685029   1.60033268
1658.00  -6.21875413   1.60318449
1659.00  -6.23066445   1.60603960
1660.00  -6.24258125   1.60889802
1661.00  -6.25450452   1.61175974
1662.00  -6.26643427   1.61462477
1663.00  -6.27837049   1.61749310
1664.00  -6.29031318   1.62036475
1665.00  -6.30226235   1.62323971
1666.00  -6.31421798   1.62611798
1667.00  -6.32618008   1.62899957
1668.00  -6.33814865   1.63188448
1669.00  -6.35012368   1.63477270
1670.00  -6.36210518   1.63766424
1671.00  -6.37409315   1.64055911
1672.00  -6.38608757   1.64345730
1673.00  -6.39808846   1.64635881
1674.00  -6.41009581   1.64926366
1675.00  -6.42210961   1.65217183
1676.00  -6.43412988   1.65508333
1677.00  -6.44615660   1.65799816
1678.00  -6.45818977   1.66091632
1679.00  -6.47022940   1.66383783
1680.00  -6.48227548   1.66676266
1681.00  -6.49432801   1.66969084
1682.00  -6.50638699   1.67262236
1683.00  -6.51845243   1.67555722
1684.00  -6.53052430   1.67849542
1685.00  -6.54260263   1.68143697
1686.00  -6.55468740   1.68438186
1687.00  -6.56677862   1.68733010
1688.00  -6.57887627   1.69028170
1689.00  -6.59098037   1.69323664
1690.00  -6.60309091   1.69619494
1691.00  -6.61520789   1.69915659
1692.00  -6.62733131   1.70212160
1693.00  -6.63946116   1.70508997
1694.00  -6.65159745   1.70806170
1695.00  -6.66374017   1.71103679
1696.00  -6.67588933   1.71401524
1697.00  -6.68804492   1.71699706
1698.00  -6.70020694   1.71998224
1699.00  -6.71237538   1.72297080
1700.00  -6.72455026   1.72596272
1701.00  -6.73673156   1.72895801
1702.00  -6.74891929   1.73195668
1703.00  -6.76111344   1.73495872
1704.00  -6.77331402   1.73796414
1705.00  -6.78552102   1.74097294
1706.00  -6.79773443   1.74398511
1707.00  -6.80995427   1.74700067
1708.00  -6.82218053   1.75001961
1709.00  -6.83441320   1.75304194
1710.00  -6.84665229   1.75606765
1711.00  -6.85889779   1.75909675
1712.00  -6.87114971   1.76212923
1713.00  -6.88340804   1.76516511
1714.00  -6.89567278   1.76820439
1715.00  -6.90794392   1.77124705
1716.00  -6.92022148   1.77429312
1717.00  -6.93250545   1.77734258
1718.00  -6.94479581   1.78039544
1719.00  -6.95709259   1.78345170
1720.00  -6.96939577   1.78651136
1721.00  -6.98170535   1.78957443
1722.00  -6.99402133   1.79264090
1723.00  -7.00634371   1.79571079
1724.00  -7.01867248   1.79878408
1725.00  -7.03100766   1.80186078
1726.00  -7.04334923   1.80494089
1727.00  -7.05569720   1.80802442
1728.00  -7.06805156   1.81111136
1729.00  -7.08041231   1.81420172
1730.00  -7.09277945   1.81729550
1731.00  -7.10515298   1.82039270
1732.00  -7.11753290   1.82349332
1733.00  -7.12991921   1.82659737
1734.00  -7.14231190   1.82970484
1735.00  -7.15471098   1.83281574
1736.00  -7.16711644   1.83593007
1737.00  -7.17952828   1.83904782
1738.00  -7.19194651   1.84216901
1739.00  -7.20437111   1.84529363
1740.00  -7.21680209   1.84842169
1741.00  -7.22923945   1.85155318
1742.00  -7.24168318   1.85468812
1743.00  -7.25413329   1.85782649
1744.00  -7.26658977   1.86096830
1745.00  -7.27905263   1.86411356
1746.00  -7.29152185   1.86726226
1747.00  -7.30399745   1.87041441
1748.00  -7.31647941   1.87357001
1749.00  -7.32896774   1.87672905
1750.00  -7.34146244   1.87989155
1751.00  -7.35396350   1.88305750
1752.00  -7.36647092   1.88622691
1753.00  -7.37898471   1.88939977
1754.00  -7.39150485   1.89257609
1755.00  -7.40403136   1.89575587
1756.00  -7.41656422   1.89893910
1757.00  -7.42910345   1.90212581
1758.00  -7.44164902   1.90531597
1759.00  -7.45420095   1.90850960
1760.00  -7.46675924   1.91170670
1761.00  -7.47932387   1.91490727
1762.00  -7.49189486   1.91811131
1763.00  -7.50447220   1.92131882
1764.00  -7.51705588   1.92452980
1765.00  -7.52964591   1.92774426
1766.00  -7.54224229   1.93096220
1767.00  -7.55484501   1.93418362
1768.00  -7.56745407   1.93740851
1769.00  -7.58006948   1.94063689
1770.00  -7.59269122   1.94386875
1771.00  -7.60531931   1.94710410
1772.00  -7.61795373   1.95034293
1773.00  -7.63059449   1.95358525
1774.00  -7.64324159   1.95683107
1775.00  -7.65589502   1.96008037
1776.00  -7.66855478   1.96333316
1777.00  -7.68122087   1.96658945
1778.00  -7.69389330   1.96984924
1779.00  -7.70657205   1.97311253
1780.00  -7.71925713   1.97637931
1781.00  -7.73194854   1.97964959
1782.00  -7.74464627   1.98292338
1783.00  -7.75735033   1.98620067
1784.00  -7.77006070   1.98948147
1785.00  -7.78277740   1.99276578
1786.00  -7.79550043   1.99605359
1787.00  -7.80822976   1.99934492
1788.00  -7.82096542   2.00263975
1789.00  -7.83370739   2.00593810
1790.00  -7.84645568   2.00923997
1791.00  -7.85921028   2.01254535
1792.00  -7.87197120   2.01585426
1793.00  -7.88473842   2.01916668
1794.00  -7.89751196   2.02248262
1795.00  -7.91029180   2.02580209
1796.00  -7.92307795   2.02912508
1797.00  -7.93587041   2.03245160
1798.00  -7.94866917   2.03578165
1799.00  -7.96147424   2.03911522
1800.00  -7.97428561   2.04245233
1801.00  -7.98710327   2.04579297
1802.00  -7.99992724   2.04913715
1803.00  -8.01275751   2.05248486
1804.00  -8.02559407   2.05583611
1805.00  -8.03843693   2.05919090
1806.00  -8.05128608   2.06254922
1807.00  -8.06414153   2.06591110
1808.00  -8.07700327   2.06927651
1809.00  -8.08987130   2.07264547
1810.00  -8.10274562   2.07601798
1811.00  -8.11562622   2.07939404
1812.00  -8.12851311   2.08277364
1813.00  -8.14140629   2.08615680
1814.00  -8.15430575   2.08954351
1815.00  -8.16721150   2.09293378
1816.00  -8.18012353   2.09632760
1817.00  -8.19304183   2.09972499
1818.00  -8.20596642   2.10312593
1819.00  -8.21889728   2.10653043
1820.00  -8.23183442   2.10993850
1821.00  -8.24477784   2.11335013
1822.00  -8.25772753   2.11676532
1823.00  -8.27068349   2.12018409
1824.00  -8.28364572   2.12360642
1825.00  -8.29661422   2.12703232
1826.00  -8.30958899   2.13046180
1827.00  -8.32257003   2.13389485
1828.00  -8.33555734   2.13733148
1829.00  -8.34855090   2.14077168
1830.00  -8.36155074   2.14421546
1831.00  -8.37455683   2.14766282
1832.00  -8.38756919   2.15111376
1833.00  -8.40058780   2.15456829
1834.00  -8.41361267   2.15802640
1835.00  -8.42664380   2.16148810
1836.00  -8.43968119   2.16495339
1837.00  -8.45272483   2.16842226
1838.00  -8.46577472   2.17189473
1839.00  -8.47883086   2.17537079
1840.00  -8.49189326   2.17885044
1841.00  -8.50496190   2.18233369
1842.00  -8.51803679   2.18582054
1843.00  -8.53111793   2.18931098
1844.00  -8.54420531   2.19280503
1845.00  -8.55729894   2.19630268
1846.00  -8.57039881   2.19980393
1847.00  -8.58350492   2.20330878
1848.00  -8.59661727   2.20681725
1849.00  -8.60973586   2.21032932
1850.00  -8.62286068   2.21384500
1851.00  -8.63599175   2.21736430
1852.00  -8.64912904   2.22088720
1853.00  -8.66227257   2.22441372
1854.00  -8.67542234   2.22794386
1855.00  -8.68857833   2.23147761
1856.00  -8.70174055   2.23501499
1857.00  -8.71490900   2.23855598
1858.00  -8.72808368   2.24210060
1859.00  -8.74126458   2.24564884
1860.00  -8.75445171   2.24920070
1861.00  -8.76764506   2.25275620
1862.00  -8.78084463   2.25631532
1863.00  -8.79405042   2.25987807
1864.00  -8.80726243   2.26344445
1865.00  -8.82048066   2.26701447
1866.00  -8.83370510   2.27058812
1867.00  -8.84693576   2.27416541
1868.00  -8.86017263   2.27774633
1869.00  -8.87341572   2.28133089
1870.00  -8.88666501   2.28491910
1871.00  -8.89992052   2.28851095
1872.00  -8.91318223   2.29210644
1873.00  -8.92645015   2.29570558
1874.00  -8.93972428   2.29930836
1875.00  -8.95300461   2.30291479
1876.00  -8.96629115   2.30652487
1877.00  -8.97958388   2.31013861
1878.00  -8.99288282   2.31375600
1879.00  -9.00618795   2.31737704
1880.00  -9.01949929   2.32100174
1881.00  -9.03281682   2.32463009
1882.00  -9.04614054   2.32826211
1883.00  -9.05947046   2.33189778
1884.00  -9.07280657   2.33553712
1885.00  -9.08614887   2.33918013
1886.00  -9.09949736   2.34282680
1887.00  -9.11285204   2.34647713
1888.00  -9.12621291   2.35013113
1889.00  -9.13957996   2.35378881
1890.00  -9.15295320   2.35745016
1891.00  -9.16633262   2.36111517
1892.00  -9.17971823   2.36478387
1893.00  -9.19311001   2.36845624
1894.00  -9.20650797   2.37213229
1895.00  -9.21991211   2.37581201
1896.00  -9.23332243   2.37949542
1897.00  -9.24673892   2.38318251
1898.00  -9.26016159   2.38687329
1899.00  -9.27359042   2.39056774
1900.00  -9.28702543   2.39426589
1901.00  -9.30046661   2.39796773
1902.00  -9.31391396   2.40167325
1903.00  -9.32736748   2.40538247
1904.00  -9.34082716   2.40909538
1905.00  -9.35429300   2.41281198
1906.00  -9.36776501   2.41653228
1907.00  -9.38124318   2.42025628
1908.00  -9.39472751   2.42398398
1909.00  -9.40821800   2.42771537
1910.00  -9.42171465   2.43145047
1911.00  -9.43521745   2.43518928
1912.00  -9.44872641   2.43893179
1913.00  -9.46224153   2.44267800
1914.00  -9.47576279   2.44642793
1915.00  -9.48929021   2.45018156
1916.00  -9.50282378   2.45393890
1917.00  -9.51636349   2.45769996
1918.00  -9.52990935   2.46146473
1919.00  -9.54346136   2.46523322
1920.00  -9.55701951   2.46900543
1921.00  -9.57058381   2.47278135
1922.00  -9.58415425   2.47656100
1923.00  -9.59773082   2.48034436
1924.00  -9.61131354   2.48413145
1925.00  -9.62490239   2.48792227
1926.00  -9.63849738   2.49171681
1927.00  -9.65209851   2.49551508
1928.00  -9.66570577   2.49931708
1929.00  -9.67931916   2.50312281
1930.00  -9.69293868   2.50693227
1931.00  -9.70656433   2.51074547
1932.00  -9.72019611   2.51456240
1933.00  -9.73383402   2.51838307
1934.00  -9.74747805   2.52220747
1935.00  -9.76112821   2.52603562
1936.00  -9.77478449   2.52986751
1937.00  -9.78844689   2.53370314
1938.00  -9.80211541   2.53754252
1939.00  -9.81579005   2.54138564
1940.00  -9.82947081   2.54523251
1941.00  -9.84315768   2.54908313
1942.00  -9.85685067   2.55293750
1943.00  -9.87054977   2.55679562
1944.00  -9.88425499   2.56065750
1945.00  -9.89796631   2.56452313
1946.00  -9.91168375   2.56839251
1947.00  -9.92540729   2.57226566
1948.00  -9.93913694   2.57614256
1949.00  -9.95287269   2.58002323
1950.00  -9.96661455   2.58390766
1951.00  -9.98036251   2.58779585
1952.00  -9.99411657   2.59168781
1953.00 -10.00787673   2.59558353
1954.00 -10.02164299   2.59948302
1955.00 -10.03541534   2.60338629
1956.00 -10.04919380   2.60729332
1957.00 -10.06297834   2.61120413
1958.00 -10.07676898   2.61511871
1959.00 -10.09056571   2.61903707
1960.00 -10.10436853   2.62295921
1961.00 -10.11817745   2.62688512
1962.00 -10.13199244   2.63081482
1963.00 -10.14581353   2.63474829
1964.00 -10.15964070   2.63868555
1965.00 -10.17347395   2.64262660
1966.00 -10.18731328   2.64657143
1967.00 -10.20115870   2.65052005
1968.00 -10.21501019   2.65447246
1969.00 -10.22886777   2.65842866
1970.00 -10.24273142   2.66238865
1971.00 -10.25660114   2.66635244
1972.00 -10.27047694   2.67032002
1973.00 -10.28435881   2.67429140
1974.00 -10.29824675   2.67826658
1975.00 -10.31214076   2.68224555
1976.00 -10.32604084   2.68622833
1977.00 -10.33994699   2.69021491
1978.00 -10.35385921   2.69420530
1979.00 -10.36777748   2.69819949
1980.00 -10.38170182   2.70219749
1981.00 -10.39563223   2.70619929
1982.00 -10.40956869   2.71020491
1983.00 -10.42351121   2.71421434
1984.00 -10.43745979   2.71822758
1985.00 -10.45141442   2.72224464
1986.00 -10.46537511   2.72626551
1987.00 -10.47934186   2.73029020
1988.00 -10.49331465   2.73431871
1989.00 -10.50729350   2.73835103
1990.00 -10.52127839   2.74238719
1991.00 -10.53526933   2.74642716
1992.00 -10.54926632   2.75047096
1993.00 -10.56326936   2.75451858
1994.00 -10.57727843   2.75857004
1995.00 -10.59129355   2.76262532
1996.00 -10.60531472   2.76668443
1997.00 -10.61934192   2.77074738
1998.00 -10.63337515   2.77481416
1999.00 -10.64741443   2.77888477
2000.00 -10.66145974   2.78295923
