wavelength(nm)         real         imag
200.00   3.68682776   0.00407411
201.00   3.68469150   0.00413551
202.00   3.68254460   0.00419753
203.00   3.68038706   0.00426016
204.00   3.67821888   0.00432341
205.00   3.67604006   0.00438729
206.00   3.67385060   0.00445179
207.00   3.67165051   0.00451692
208.00   3.66943978   0.00458268
209.00   3.66721841   0.00464908
210.00   3.66498640   0.00471611
211.00   3.66274376   0.00478379
212.00   3.66049048   0.00485211
213.00   3.65822657   0.00492108
214.00   3.65595202   0.00499069
215.00   3.65366683   0.00506096
216.00   3.65137101   0.00513189
217.00   3.64906455   0.00520348
218.00   3.64674746   0.00527573
219.00   3.64441973   0.00534864
220.00   3.64208137   0.00542222
221.00   3.63973237   0.00549648
222.00   3.63737274   0.00557140
223.00   3.63500248   0.00564701
224.00   3.63262158   0.00572330
225.00   3.63023005   0.00580027
226.00   3.62782789   0.00587792
227.00   3.62541509   0.00595627
228.00   3.62299166   0.00603531
229.00   3.62055760   0.00611505
230.00   3.61811291   0.00619548
231.00   3.61565758   0.00627662
232.00   3.61319163   0.00635846
233.00   3.61071504   0.00644101
234.00   3.60822782   0.00652427
235.00   3.60572998   0.00660824
236.00   3.60322150   0.00669293
237.00   3.60070239   0.00677834
238.00   3.59817265   0.00686448
239.00   3.59563228   0.00695134
240.00   3.59308129   0.00703893
241.00   3.59051966   0.00712725
242.00   3.58794741   0.00721631
243.00   3.58536452   0.00730610
244.00   3.58277101   0.00739664
245.00   3.58016687   0.00748792
246.00   3.57755211   0.00757995
247.00   3.57492671   0.00767273
248.00   3.57229069   0.00776627
249.00   3.56964405   0.00786056
250.00   3.56698677   0.00795561
251.00   3.56431888   0.00805142
252.00   3.56164035   0.00814800
253.00   3.55895120   0.00824535
254.00   3.55625142   0.00834347
255.00   3.55354102   0.00844236
256.00   3.55082000   0.00854203
257.00   3.54808835   0.00864249
258.00   3.54534608   0.00874372
259.00   3.54259318   0.00884575
260.00   3.53982966   0.00894856
261.00   3.53705552   0.00905217
262.00   3.53427075   0.00915657
263.00   3.53147536   0.00926177
264.00   3.52866935   0.00936778
265.00   3.52585272   0.00947459
266.00   3.52302546   0.00958221
267.00   3.52018759   0.00969064
268.00   3.51733909   0.00979988
269.00   3.51447997   0.00990994
270.00   3.51161024   0.01002082
271.00   3.50872988   0.01013253
272.00   3.50583890   0.01024506
273.00   3.50293731   0.01035842
274.00   3.50002509   0.01047262
275.00   3.49710226   0.01058765
276.00   3.49416881   0.01070352
277.00   3.49122473   0.01082023
278.00   3.48827005   0.01093778
279.00   3.48530474   0.01105618
280.00   3.48232882   0.01117544
281.00   3.47934228   0.01129554
282.00   3.47634512   0.01141651
283.00   3.47333735   0.01153833
284.00   3.47031896   0.01166102
285.00   3.46728996   0.01178457
286.00   3.46425034   0.01190899
287.00   3.46120011   0.01203429
288.00   3.45813926   0.01216046
289.00   3.45506780   0.01228750
290.00   3.45198572   0.01241543
291.00   3.44889303   0.01254424
292.00   3.44578973   0.01267394
293.00   3.44267581   0.01280453
294.00   3.43955129   0.01293602
295.00   3.43641615   0.01306839
296.00   3.43327039   0.01320167
297.00   3.43011403   0.01333585
298.00   3.42694706   0.01347094
299.00   3.42376947   0.01360694
300.00   3.42058128   0.01374384
301.00   3.41738247   0.01388166
302.00   3.41417306   0.01402040
303.00   3.41095303   0.01416006
304.00   3.40772240   0.01430064
305.00   3.40448116   0.01444215
306.00   3.40122931   0.01458459
307.00   3.39796685   0.01472796
308.00   3.39469378   0.01487227
309.00   3.39141011   0.01501752
310.00   3.38811583   0.01516370
311.00   3.38481094   0.01531084
312.00   3.38149545   0.01545892
313.00   3.37816935   0.01560795
314.00   3.37483265   0.01575793
315.00   3.37148534   0.01590888
316.00   3.36812743   0.01606078
317.00   3.36475891   0.01621364
318.00   3.36137979   0.01636748
319.00   3.35799007   0.01652228
320.00   3.35458974   0.01667805
321.00   3.35117881   0.01683480
322.00   3.34775727   0.01699252
323.00   3.34432514   0.01715123
324.00   3.34088240   0.01731092
325.00   3.33742906   0.01747160
326.00   3.33396512   0.01763326
327.00   3.33049058   0.01779593
328.00   3.32700544   0.01795958
329.00   3.32350970   0.01812424
330.00   3.32000336   0.01828990
331.00   3.31648642   0.01845657
332.00   3.31295889   0.01862424
333.00   3.30942075   0.01879292
334.00   3.30587202   0.01896262
335.00   3.30231269   0.01913334
336.00   3.29874276   0.01930508
337.00   3.29516223   0.01947784
338.00   3.29157111   0.01965162
339.00   3.28796940   0.01982644
340.00   3.28435708   0.02000229
341.00   3.28073418   0.02017918
342.00   3.27710067   0.02035710
343.00   3.27345658   0.02053606
344.00   3.26980189   0.02071608
345.00   3.26613660   0.02089713
346.00   3.26246072   0.02107924
347.00   3.25877425   0.02126240
348.00   3.25507719   0.02144662
349.00   3.25136954   0.02163190
350.00   3.24765129   0.02181824
351.00   3.24392245   0.02200565
352.00   3.24018303   0.02219413
353.00   3.23643301   0.02238368
354.00   3.23267240   0.02257430
355.00   3.22890120   0.02276600
356.00   3.22511941   0.02295878
357.00   3.22132704   0.02315265
358.00   3.21752408   0.02334760
359.00   3.21371052   0.02354365
360.00   3.20988639   0.02374078
361.00   3.20605166   0.02393902
362.00   3.20220635   0.02413835
363.00   3.19835045   0.02433878
364.00   3.19448396   0.02454032
365.00   3.19060689   0.02474297
366.00   3.18671924   0.02494672
367.00   3.18282100   0.02515160
368.00   3.17891218   0.02535759
369.00   3.17499277   0.02556470
370.00   3.17106278   0.02577293
371.00   3.16712221   0.02598229
372.00   3.16317105   0.02619278
373.00   3.15920931   0.02640440
374.00   3.15523699   0.02661715
375.00   3.15125409   0.02683105
376.00   3.14726061   0.02704609
377.00   3.14325655   0.02726227
378.00   3.13924191   0.02747959
379.00   3.13521669   0.02769807
380.00   3.13118089   0.02791770
381.00   3.12713452   0.02813849
382.00   3.12307756   0.02836044
383.00   3.11901003   0.02858355
384.00   3.11493192   0.02880783
385.00   3.11084323   0.02903327
386.00   3.10674397   0.02925989
387.00   3.10263413   0.02948768
388.00   3.09851372   0.02971664
389.00   3.09438273   0.02994679
390.00   3.09024117   0.03017812
391.00   3.08608903   0.03041064
392.00   3.08192632   0.03064435
393.00   3.07775304   0.03087925
394.00   3.07356918   0.03111535
395.00   3.06937476   0.03135264
396.00   3.06516976   0.03159114
397.00   3.06095419   0.03183084
398.00   3.05672804   0.03207175
399.00   3.05249133   0.03231387
400.00   3.04824405   0.03255720
401.00   3.04398620   0.03280175
402.00   3.03971778   0.03304752
403.00   3.03543879   0.03329452
404.00   3.03114923   0.03354274
405.00   3.02684911   0.03379218
406.00   3.02253842   0.03404286
407.00   3.01821716   0.03429478
408.00   3.01388534   0.03454793
409.00   3.00954295   0.03480232
410.00   3.00518999   0.03505796
411.00   3.00082647   0.03531484
412.00   2.99645239   0.03557298
413.00   2.99206774   0.03583236
414.00   2.98767253   0.03609300
415.00   2.98326676   0.03635490
416.00   2.97885042   0.03661807
417.00   2.97442353   0.03688250
418.00   2.96998607   0.03714819
419.00   2.96553805   0.03741516
420.00   2.96107947   0.03768340
421.00   2.95661033   0.03795292
422.00   2.95213063   0.03822371
423.00   2.94764037   0.03849579
424.00   2.94313956   0.03876916
425.00   2.93862818   0.03904382
426.00   2.93410625   0.03931976
427.00   2.92957376   0.03959701
428.00   2.92503072   0.03987555
429.00   2.92047712   0.04015539
430.00   2.91591296   0.04043653
431.00   2.91133825   0.04071898
432.00   2.90675298   0.04100275
433.00   2.90215716   0.04128782
434.00   2.89755079   0.04157421
435.00   2.89293386   0.04186192
436.00   2.88830639   0.04215096
437.00   2.88366836   0.04244131
438.00   2.87901977   0.04273300
439.00   2.87436064   0.04302602
440.00   2.86969096   0.04332037
441.00   2.86501072   0.04361605
442.00   2.86031994   0.04391308
443.00   2.85561861   0.04421145
444.00   2.85090673   0.04451117
445.00   2.84618430   0.04481224
446.00   2.84145133   0.04511465
447.00   2.83670781   0.04541843
448.00   2.83195374   0.04572356
449.00   2.82718913   0.04603005
450.00   2.82241397   0.04633791
451.00   2.81762826   0.04664713
452.00   2.81283201   0.04695772
453.00   2.80802522   0.04726969
454.00   2.80320789   0.04758303
455.00   2.79838001   0.04789775
456.00   2.79354159   0.04821386
457.00   2.78869263   0.04853135
458.00   2.78383313   0.04885022
459.00   2.77896308   0.04917049
460.00   2.77408250   0.04949215
461.00   2.76919138   0.04981521
462.00   2.76428972   0.05013967
463.00   2.75937752   0.05046553
464.00   2.75445478   0.05079280
465.00   2.74952150   0.05112148
466.00   2.74457769   0.05145157
467.00   2.73962334   0.05178307
468.00   2.73465846   0.05211599
469.00   2.72968304   0.05245034
470.00   2.72469709   0.05278610
471.00   2.71970060   0.05312330
472.00   2.71469358   0.05346192
473.00   2.70967602   0.05380198
474.00   2.70464794   0.05414347
475.00   2.69960932   0.05448641
476.00   2.69456017   0.05483078
477.00   2.68950049   0.05517660
478.00   2.68443027   0.05552387
479.00   2.67934953   0.05587259
480.00   2.67425826   0.05622276
481.00   2.66915646   0.05657439
482.00   2.66404414   0.05692748
483.00   2.65892128   0.05728203
484.00   2.65378790   0.05763805
485.00   2.64864399   0.05799553
486.00   2.64348956   0.05835449
487.00   2.63832460   0.05871493
488.00   2.63314912   0.05907684
489.00   2.62796311   0.05944023
490.00   2.62276658   0.05980511
491.00   2.61755952   0.06017147
492.00   2.61234195   0.06053933
493.00   2.60711385   0.06090867
494.00   2.60187523   0.06127952
495.00   2.59662609   0.06165186
496.00   2.59136643   0.06202570
497.00   2.58609625   0.06240105
498.00   2.58081555   0.06277790
499.00   2.57552433   0.06315627
500.00   2.57022260   0.06353615
501.00   2.56491034   0.06391755
502.00   2.55958757   0.06430046
503.00   2.55425429   0.06468490
504.00   2.54891049   0.06507087
505.00   2.54355617   0.06545836
506.00   2.53819134   0.06584739
507.00   2.53281599   0.06623795
508.00   2.52743014   0.06663004
509.00   2.52203377   0.06702368
510.00   2.51662688   0.06741887
511.00   2.51120949   0.06781559
512.00   2.50578159   0.06821387
513.00   2.50034317   0.06861370
514.00   2.49489425   0.06901509
515.00   2.48943481   0.06941804
516.00   2.48396487   0.06982254
517.00   2.47848442   0.07022861
518.00   2.47299346   0.07063625
519.00   2.46749200   0.07104546
520.00   2.46198003   0.07145625
521.00   2.45645755   0.07186861
522.00   2.45092457   0.07228254
523.00   2.44538109   0.07269807
524.00   2.43982710   0.07311517
525.00   2.43426261   0.07353387
526.00   2.42868761   0.07395415
527.00   2.42310212   0.07437603
528.00   2.41750612   0.07479951
529.00   2.41189962   0.07522459
530.00   2.40628262   0.07565127
531.00   2.40065512   0.07607956
532.00   2.39501713   0.07650946
533.00   2.38936863   0.07694097
534.00   2.38370964   0.07737409
535.00   2.37804015   0.07780883
536.00   2.37236017   0.07824520
537.00   2.36666968   0.07868319
538.00   2.36096871   0.07912280
539.00   2.35525724   0.07956405
540.00   2.34953527   0.08000693
541.00   2.34380281   0.08045144
542.00   2.33805986   0.08089759
543.00   2.33230642   0.08134539
544.00   2.32654248   0.08179483
545.00   2.32076806   0.08224592
546.00   2.31498314   0.08269866
547.00   2.30918774   0.08315305
548.00   2.30338185   0.08360910
549.00   2.29756546   0.08406681
550.00   2.29173859   0.08452618
551.00   2.28590124   0.08498722
552.00   2.28005339   0.08544993
553.00   2.27419507   0.08591431
554.00   2.26832625   0.08638036
555.00   2.26244695   0.08684809
556.00   2.25655717   0.08731751
557.00   2.25065691   0.08778860
558.00   2.24474616   0.08826138
559.00   2.23882493   0.08873586
560.00   2.23289322   0.08921202
561.00   2.22695103   0.08968988
562.00   2.22099835   0.09016944
563.00   2.21503520   0.09065070
564.00   2.20906157   0.09113366
565.00   2.20307747   0.09161834
566.00   2.19708288   0.09210472
567.00   2.19107782   0.09259281
568.00   2.18506228   0.09308262
569.00   2.17903627   0.09357416
570.00   2.17299978   0.09406741
571.00   2.16695282   0.09456239
572.00   2.16089538   0.09505909
573.00   2.15482747   0.09555753
574.00   2.14874909   0.09605770
575.00   2.14266024   0.09655961
576.00   2.13656092   0.09706326
577.00   2.13045113   0.09756865
578.00   2.12433086   0.09807579
579.00   2.11820013   0.09858468
580.00   2.11205893   0.09909532
581.00   2.10590727   0.09960771
582.00   2.09974513   0.10012186
583.00   2.09357253   0.10063777
584.00   2.08738947   0.10115545
585.00   2.08119594   0.10167489
586.00   2.07499194   0.10219610
587.00   2.06877749   0.10271909
588.00   2.06255257   0.10324385
589.00   2.05631718   0.10377039
590.00   2.05007134   0.10429871
591.00   2.04381504   0.10482881
592.00   2.03754827   0.10536070
593.00   2.03127105   0.10589439
594.00   2.02498336   0.10642986
595.00   2.01868522   0.10696714
596.00   2.01237662   0.10750621
597.00   2.00605757   0.10804708
598.00   1.99972806   0.10858976
599.00   1.99338809   0.10913425
600.00   1.98703767   0.10968055
601.00   1.98067680   0.11022866
602.00   1.97430547   0.11077859
603.00   1.96792369   0.11133034
604.00   1.96153146   0.11188391
605.00   1.95512877   0.11243931
606.00   1.94871564   0.11299653
607.00   1.94229206   0.11355559
608.00   1.93585802   0.11411649
609.00   1.92941354   0.11467922
610.00   1.92295861   0.11524379
611.00   1.91649324   0.11581020
612.00   1.91001742   0.11637847
613.00   1.90353115   0.11694858
614.00   1.89703444   0.11752054
615.00   1.89052728   0.11809436
616.00   1.88400968   0.11867004
617.00   1.87748164   0.11924758
618.00   1.87094315   0.11982698
619.00   1.86439423   0.12040825
620.00   1.85783486   0.12099139
621.00   1.85126505   0.12157641
622.00   1.84468481   0.12216330
623.00   1.83809412   0.12275207
624.00   1.83149300   0.12334272
625.00   1.82488144   0.12393526
626.00   1.81825945   0.12452968
627.00   1.81162702   0.12512599
628.00   1.80498415   0.12572420
629.00   1.79833085   0.12632431
630.00   1.79166712   0.12692631
631.00   1.78499295   0.12753022
632.00   1.77830835   0.12813603
633.00   1.77161332   0.12874376
634.00   1.76490786   0.12935339
635.00   1.75819197   0.12996494
636.00   1.75146565   0.13057840
637.00   1.74472891   0.13119379
638.00   1.73798173   0.13181110
639.00   1.73122413   0.13243033
640.00   1.72445610   0.13305150
641.00   1.71767765   0.13367459
642.00   1.71088877   0.13429962
643.00   1.70408947   0.13492659
644.00   1.69727974   0.13555550
645.00   1.69045959   0.13618636
646.00   1.68362902   0.13681916
647.00   1.67678803   0.13745391
648.00   1.66993662   0.13809061
649.00   1.66307479   0.13872927
650.00   1.65620254   0.13936989
651.00   1.64931988   0.14001246
652.00   1.64242679   0.14065701
653.00   1.63552329   0.14130352
654.00   1.62860937   0.14195200
655.00   1.62168504   0.14260245
656.00   1.61475029   0.14325488
657.00   1.60780513   0.14390929
658.00   1.60084956   0.14456568
659.00   1.59388358   0.14522406
660.00   1.58690718   0.14588443
661.00   1.57992037   0.14654678
662.00   1.57292316   0.14721113
663.00   1.56591553   0.14787748
664.00   1.55889750   0.14854582
665.00   1.55186906   0.14921617
666.00   1.54483021   0.14988852
667.00   1.53778096   0.15056289
668.00   1.53072130   0.15123926
669.00   1.52365123   0.15191765
670.00   1.51657077   0.15259806
671.00   1.50947990   0.15328048
672.00   1.50237862   0.15396493
673.00   1.49526695   0.15465141
674.00   1.48814487   0.15533991
675.00   1.48101240   0.15603045
676.00   1.47386953   0.15672302
677.00   1.46671626   0.15741763
678.00   1.45955259   0.15811428
679.00   1.45237852   0.15881297
680.00   1.44519406   0.15951371
681.00   1.43799920   0.16021650
682.00   1.43079395   0.16092134
683.00   1.42357830   0.16162824
684.00   1.41635227   0.16233719
685.00   1.40911584   0.16304821
686.00   1.40186901   0.16376129
687.00   1.39461180   0.16447644
688.00   1.38734420   0.16519366
689.00   1.38006621   0.16591295
690.00   1.37277783   0.16663432
691.00   1.36547906   0.16735776
692.00   1.35816991   0.16808329
693.00   1.35085037   0.16881090
694.00   1.34352045   0.16954060
695.00   1.33618014   0.17027240
696.00   1.32882945   0.17100628
697.00   1.32146838   0.17174226
698.00   1.31409692   0.17248034
699.00   1.30671508   0.17322052
700.00   1.29932287   0.17396281
701.00   1.29192027   0.17470720
702.00   1.28450730   0.17545371
703.00   1.27708394   0.17620233
704.00   1.26965021   0.17695307
705.00   1.26220611   0.17770593
706.00   1.25475163   0.17846090
707.00   1.24728677   0.17921801
708.00   1.23981154   0.17997724
709.00   1.23232594   0.18073861
710.00   1.22482996   0.18150211
711.00   1.21732362   0.18226775
712.00   1.20980690   0.18303552
713.00   1.20227981   0.18380544
714.00   1.19474236   0.18457751
715.00   1.18719453   0.18535172
716.00   1.17963634   0.18612809
717.00   1.17206778   0.18690661
718.00   1.16448886   0.18768729
719.00   1.15689957   0.18847013
720.00   1.14929992   0.18925513
721.00   1.14168991   0.19004230
722.00   1.13406953   0.19083164
723.00   1.12643879   0.19162315
724.00   1.11879769   0.19241684
725.00   1.11114623   0.19321271
726.00   1.10348441   0.19401075
727.00   1.09581223   0.19481098
728.00   1.08812970   0.19561340
729.00   1.08043681   0.19641800
730.00   1.07273356   0.19722480
731.00   1.06501996   0.19803380
732.00   1.05729600   0.19884499
733.00   1.04956169   0.19965839
734.00   1.04181703   0.20047398
735.00   1.03406202   0.20129179
736.00   1.02629665   0.20211181
737.00   1.01852094   0.20293403
738.00   1.01073487   0.20375848
739.00   1.00293846   0.20458514
740.00   0.99513170   0.20541403
741.00   0.98731460   0.20624514
742.00   0.97948715   0.20707848
743.00   0.97164935   0.20791404
744.00   0.96380121   0.20875185
745.00   0.95594273   0.20959188
746.00   0.94807390   0.21043416
747.00   0.94019473   0.21127868
748.00   0.93230523   0.21212544
749.00   0.92440538   0.21297446
750.00   0.91649519   0.21382572
751.00   0.90857467   0.21467923
752.00   0.90064381   0.21553501
753.00   0.89270261   0.21639304
754.00   0.88475107   0.21725333
755.00   0.87678921   0.21811589
756.00   0.86881700   0.21898072
757.00   0.86083447   0.21984782
758.00   0.85284160   0.22071720
759.00   0.84483840   0.22158885
760.00   0.83682487   0.22246278
761.00   0.82880102   0.22333899
762.00   0.82076683   0.22421749
763.00   0.81272232   0.22509827
764.00   0.80466747   0.22598135
765.00   0.79660231   0.22686673
766.00   0.78852681   0.22775439
767.00   0.78044100   0.22864436
768.00   0.77234486   0.22953664
769.00   0.76423839   0.23043122
770.00   0.75612161   0.23132810
771.00   0.74799450   0.23222730
772.00   0.73985708   0.23312882
773.00   0.73170933   0.23403265
774.00   0.72355127   0.23493880
775.00   0.71538289   0.23584727
776.00   0.70720420   0.23675807
777.00   0.69901519   0.23767120
778.00   0.69081586   0.23858667
779.00   0.68260622   0.23950446
780.00   0.67438627   0.24042460
781.00   0.66615600   0.24134707
782.00   0.65791543   0.24227189
783.00   0.64966454   0.24319905
784.00   0.64140335   0.24412857
785.00   0.63313184   0.24506043
786.00   0.62485003   0.24599466
787.00   0.61655791   0.24693123
788.00   0.60825549   0.24787017
789.00   0.59994276   0.24881148
790.00   0.59161973   0.24975515
791.00   0.58328639   0.25070119
792.00   0.57494276   0.25164960
793.00   0.56658882   0.25260039
794.00   0.55822458   0.25355355
795.00   0.54985004   0.25450910
796.00   0.54146520   0.25546703
797.00   0.53307007   0.25642734
798.00   0.52466464   0.25739005
799.00   0.51624891   0.25835515
800.00   0.50782289   0.25932264
801.00   0.49938657   0.26029254
802.00   0.49093996   0.26126483
803.00   0.48248306   0.26223953
804.00   0.47401587   0.26321663
805.00   0.46553838   0.26419615
806.00   0.45705061   0.26517808
807.00   0.44855255   0.26616242
808.00   0.44004420   0.26714918
809.00   0.43152556   0.26813836
810.00   0.42299664   0.26912997
811.00   0.41445744   0.27012400
812.00   0.40590794   0.27112047
813.00   0.39734817   0.27211937
814.00   0.38877812   0.27312070
815.00   0.38019778   0.27412447
816.00   0.37160716   0.27513068
817.00   0.36300627   0.27613934
818.00   0.35439509   0.27715044
819.00   0.34577364   0.27816400
820.00   0.33714191   0.27918001
821.00   0.32849990   0.28019847
822.00   0.31984762   0.28121939
823.00   0.31118507   0.28224277
824.00   0.30251225   0.28326862
825.00   0.29382915   0.28429694
826.00   0.28513578   0.28532772
827.00   0.27643214   0.28636098
828.00   0.26771823   0.28739672
829.00   0.25899405   0.28843493
830.00   0.25025961   0.28947562
831.00   0.24151490   0.29051880
832.00   0.23275993   0.29156447
833.00   0.22399469   0.29261263
834.00   0.21521918   0.29366328
835.00   0.20643342   0.29471643
836.00   0.19763739   0.29577207
837.00   0.18883110   0.29683022
838.00   0.18001455   0.29789087
839.00   0.17118775   0.29895403
840.00   0.16235068   0.30001970
841.00   0.15350336   0.30108788
842.00   0.14464578   0.30215858
843.00   0.13577795   0.30323180
844.00   0.12689987   0.30430754
845.00   0.11801153   0.30538580
846.00   0.10911294   0.30646660
847.00   0.10020409   0.30754992
848.00   0.09128500   0.30863577
849.00   0.08235566   0.30972416
850.00   0.07341607   0.31081510
851.00   0.06446623   0.31190857
852.00   0.05550615   0.31300458
853.00   0.04653582   0.31410315
854.00   0.03755525   0.31520426
855.00   0.02856443   0.31630793
856.00   0.01956337   0.31741416
857.00   0.01055207   0.31852294
858.00   0.00153053   0.31963429
859.00  -0.00750125   0.32074820
860.00  -0.01654327   0.32186467
861.00  -0.02559553   0.32298372
862.00  -0.03465802   0.32410534
863.00  -0.04373075   0.32522954
864.00  -0.05281372   0.32635632
865.00  -0.06190692   0.32748568
866.00  -0.07101035   0.32861762
867.00  -0.08012401   0.32975215
868.00  -0.08924790   0.33088927
869.00  -0.09838203   0.33202898
870.00  -0.10752638   0.33317129
871.00  -0.11668096   0.33431620
872.00  -0.12584577   0.33546371
873.00  -0.13502080   0.33661383
874.00  -0.14420606   0.33776655
875.00  -0.15340154   0.33892189
876.00  -0.16260724   0.34007983
877.00  -0.17182317   0.34124040
878.00  -0.18104932   0.34240358
879.00  -0.19028569   0.34356938
880.00  -0.19953227   0.34473781
881.00  -0.20878908   0.34590886
882.00  -0.21805610   0.34708255
883.00  -0.22733334   0.34825887
884.00  -0.23662079   0.34943782
885.00  -0.24591846   0.35061941
886.00  -0.25522634   0.35180365
887.00  -0.26454443   0.35299053
888.00  -0.27387273   0.35418006
889.00  -0.28321124   0.35537223
890.00  -0.29255996   0.35656706
891.00  -0.30191889   0.35776455
892.00  -0.31128803   0.35896469
893.00  -0.32066737   0.36016750
894.00  -0.33005692   0.36137297
895.00  -0.33945667   0.36258111
896.00  -0.34886663   0.36379191
897.00  -0.35828679   0.36500540
898.00  -0.36771714   0.36622155
899.00  -0.37715770   0.36744039
900.00  -0.38660846   0.36866190
901.00  -0.39606941   0.36988610
902.00  -0.40554056   0.37111299
903.00  -0.41502191   0.37234257
904.00  -0.42451345   0.37357484
905.00  -0.43401519   0.37480980
906.00  -0.44352712   0.37604747
907.00  -0.45304924   0.37728783
908.00  -0.46258155   0.37853090
909.00  -0.47212405   0.37977668
910.00  -0.48167675   0.38102517
911.00  -0.49123962   0.38227636
912.00  -0.50081269   0.38353028
913.00  -0.51039594   0.38478691
914.00  -0.51998937   0.38604626
915.00  -0.52959299   0.38730834
916.00  -0.53920679   0.38857315
917.00  -0.54883078   0.38984068
918.00  -0.55846494   0.39111095
919.00  -0.56810928   0.39238395
920.00  -0.57776381   0.39365969
921.00  -0.58742851   0.39493817
922.00  -0.59710338   0.39621939
923.00  -0.60678843   0.39750336
924.00  -0.61648366   0.39879008
925.00  -0.62618906   0.40007955
926.00  -0.63590463   0.40137178
927.00  -0.64563037   0.40266677
928.00  -0.65536628   0.40396451
929.00  -0.66511236   0.40526502
930.00  -0.67486861   0.40656829
931.00  -0.68463503   0.40787434
932.00  -0.69441161   0.40918316
933.00  -0.70419836   0.41049475
934.00  -0.71399527   0.41180912
935.00  -0.72380235   0.41312626
936.00  -0.73361958   0.41444620
937.00  -0.74344698   0.41576891
938.00  -0.75328454   0.41709442
939.00  -0.76313225   0.41842272
940.00  -0.77299013   0.41975381
941.00  -0.78285816   0.42108770
942.00  -0.79273634   0.42242440
943.00  -0.80262468   0.42376389
944.00  -0.81252318   0.42510619
945.00  -0.82243182   0.42645130
946.00  -0.83235062   0.42779922
947.00  -0.84227956   0.42914995
948.00  -0.85221866   0.43050350
949.00  -0.86216791   0.43185987
950.00  -0.87212730   0.43321906
951.00  -0.88209683   0.43458108
952.00  -0.89207652   0.43594593
953.00  -0.90206634   0.43731361
954.00  -0.91206631   0.43868412
955.00  -0.92207642   0.44005747
956.00  -0.93209667   0.44143365
957.00  -0.94212706   0.44281268
958.00  -0.95216759   0.44419456
959.00  -0.96221826   0.44557928
960.00  -0.97227906   0.44696686
961.00  -0.98235000   0.44835729
962.00  -0.99243107   0.44975057
963.00  -1.00252228   0.45114671
964.00  -1.01262362   0.45254572
965.00  -1.02273508   0.45394759
966.00  -1.03285668   0.45535232
967.00  -1.04298841   0.45675993
968.00  -1.05313027   0.45817041
969.00  -1.06328225   0.45958377
970.00  -1.07344435   0.46100001
971.00  -1.08361659   0.46241912
972.00  -1.09379894   0.46384113
973.00  -1.10399142   0.46526601
974.00  -1.11419402   0.46669379
975.00  -1.12440673   0.46812446
976.00  -1.13462957   0.46955803
977.00  -1.14486253   0.47099450
978.00  -1.15510560   0.47243386
979.00  -1.16535879   0.47387614
980.00  -1.17562209   0.47532131
981.00  -1.18589551   0.47676940
982.00  -1.19617904   0.47822040
983.00  -1.20647268   0.47967431
984.00  -1.21677643   0.48113115
985.00  -1.22709029   0.48259090
986.00  -1.23741425   0.48405358
987.00  -1.24774833   0.48551918
988.00  -1.25809251   0.48698771
989.00  -1.26844679   0.48845918
990.00  -1.27881118   0.48993358
991.00  -1.28918567   0.49141092
992.00  -1.29957027   0.49289119
993.00  -1.30996496   0.49437441
994.00  -1.32036975   0.49586058
995.00  -1.33078464   0.49734969
996.00  -1.34120963   0.49884176
997.00  -1.35164471   0.50033678
998.00  -1.36208989   0.50183476
999.00  -1.37254516   0.50333570
1000.00  -1.38301053   0.50483960
1001.00  -1.39348598   0.50634646
1002.00  -1.40397153   0.50785629
1003.00  -1.41446716   0.50936910
1004.00  -1.42497289   0.51088488
1005.00  -1.43548870   0.51240363
1006.00  -1.44601459   0.51392537
1007.00  -1.45655057   0.51545008
1008.00  -1.46709664   0.51697778
1009.00  -1.47765278   0.51850847
1010.00  -1.48821901   0.52004215
1011.00  -1.49879532   0.52157883
1012.00  -1.50938171   0.52311849
1013.00  -1.51997817   0.52466116
1014.00  -1.53058472   0.52620683
1015.00  -1.54120133   0.52775550
1016.00  -1.55182803   0.52930719
1017.00  -1.56246479   0.53086188
1018.00  -1.57311163   0.53241958
1019.00  -1.58376854   0.53398030
1020.00  -1.59443552   0.53554404
1021.00  -1.60511257   0.53711079
1022.00  -1.61579968   0.53868058
1023.00  -1.62649687   0.54025338
1024.00  -1.63720411   0.54182922
1025.00  -1.64792143   0.54340809
1026.00  -1.65864880   0.54499000
1027.00  -1.66938624   0.54657494
1028.00  -1.68013374   0.54816292
1029.00  -1.69089130   0.54975395
1030.00  -1.70165891   0.55134802
1031.00  -1.71243659   0.55294514
1032.00  -1.72322432   0.55454531
1033.00  -1.73402211   0.55614854
1034.00  -1.74482995   0.55775482
1035.00  -1.75564784   0.55936417
1036.00  -1.76647578   0.56097657
1037.00  -1.77731378   0.56259205
1038.00  -1.78816182   0.56421059
1039.00  -1.79901992   0.56583220
1040.00  -1.80988806   0.56745688
1041.00  -1.82076624   0.56908464
1042.00  -1.83165447   0.57071548
1043.00  -1.84255275   0.57234940
1044.00  -1.85346106   0.57398641
1045.00  -1.86437942   0.57562651
1046.00  -1.87530782   0.57726969
1047.00  -1.88624626   0.57891597
1048.00  -1.89719473   0.58056534
1049.00  -1.90815325   0.58221781
1050.00  -1.91912179   0.58387339
1051.00  -1.93010038   0.58553206
1052.00  -1.94108899   0.58719385
1053.00  -1.95208764   0.58885874
1054.00  -1.96309632   0.59052675
1055.00  -1.97411502   0.59219787
1056.00  -1.98514376   0.59387211
1057.00  -1.99618252   0.59554947
1058.00  -2.00723131   0.59722995
1059.00  -2.01829013   0.59891356
1060.00  -2.02935897   0.60060030
1061.00  -2.04043783   0.60229017
1062.00  -2.05152671   0.60398317
1063.00  -2.06262561   0.60567931
1064.00  -2.07373453   0.60737859
1065.00  -2.08485347   0.60908102
1066.00  -2.09598243   0.61078659
1067.00  -2.10712140   0.61249530
1068.00  -2.11827039   0.61420717
1069.00  -2.12942939   0.61592219
1070.00  -2.14059840   0.61764037
1071.00  -2.15177742   0.61936171
1072.00  -2.16296645   0.62108621
1073.00  -2.17416549   0.62281387
1074.00  -2.18537454   0.62454470
1075.00  -2.19659360   0.62627870
1076.00  -2.20782265   0.62801588
1077.00  -2.21906172   0.62975623
1078.00  -2.23031078   0.63149976
1079.00  -2.24156985   0.63324646
1080.00  -2.25283891   0.63499636
1081.00  -2.26411798   0.63674944
1082.00  -2.27540704   0.63850571
1083.00  -2.28670610   0.64026517
1084.00  -2.29801516   0.64202782
1085.00  -2.30933420   0.64379368
1086.00  -2.32066325   0.64556273
1087.00  -2.33200228   0.64733499
1088.00  -2.34335130   0.64911045
1089.00  -2.35471032   0.65088912
1090.00  -2.36607932   0.65267101
1091.00  -2.37745830   0.65445610
1092.00  -2.38884728   0.65624442
1093.00  -2.40024624   0.65803595
1094.00  -2.41165518   0.65983070
1095.00  -2.42307410   0.66162868
1096.00  -2.43450301   0.66342989
1097.00  -2.44594189   0.66523433
1098.00  -2.45739075   0.66704200
1099.00  -2.46884959   0.66885291
1100.00  -2.48031841   0.67066705
1101.00  -2.49179720   0.67248444
1102.00  -2.50328596   0.67430507
1103.00  -2.51478470   0.67612895
1104.00  -2.52629340   0.67795608
1105.00  -2.53781208   0.67978646
1106.00  -2.54934073   0.68162009
1107.00  -2.56087934   0.68345698
1108.00  -2.57242792   0.68529714
1109.00  -2.58398646   0.68714055
1110.00  -2.59555497   0.68898723
1111.00  -2.60713344   0.69083718
1112.00  -2.61872188   0.69269041
1113.00  -2.63032027   0.69454690
1114.00  -2.64192862   0.69640668
1115.00  -2.65354693   0.69826973
1116.00  -2.66517519   0.70013606
1117.00  -2.67681341   0.70200568
1118.00  -2.68846159   0.70387859
1119.00  -2.70011971   0.70575479
1120.00  -2.71178779   0.70763428
1121.00  -2.72346582   0.70951707
1122.00  -2.73515380   0.71140315
1123.00  -2.74685172   0.71329254
1124.00  -2.75855960   0.71518523
1125.00  -2.77027741   0.71708123
1126.00  -2.78200517   0.71898053
1127.00  -2.79374288   0.72088315
1128.00  -2.80549052   0.72278909
1129.00  -2.81724811   0.72469834
1130.00  -2.82901564   0.72661091
1131.00  -2.84079310   0.72852681
1132.00  -2.85258050   0.73044603
1133.00  -2.86437783   0.73236858
1134.00  -2.87618510   0.73429446
1135.00  -2.88800230   0.73622367
1136.00  -2.89982944   0.73815622
1137.00  -2.91166650   0.74009211
1138.00  -2.92351349   0.74203134
1139.00  -2.93537041   0.74397392
1140.00  -2.94723726   0.74591985
1141.00  -2.95911403   0.74786912
1142.00  -2.97100073   0.74982175
1143.00  -2.98289735   0.75177773
1144.00  -2.99480389   0.75373707
1145.00  -3.00672035   0.75569977
1146.00  -3.01864673   0.75766584
1147.00  -3.03058303   0.75963527
1148.00  -3.04252924   0.76160807
1149.00  -3.05448537   0.76358425
1150.00  -3.06645142   0.76556380
1151.00  -3.07842738   0.76754672
1152.00  -3.09041324   0.76953303
1153.00  -3.10240902   0.77152271
1154.00  -3.11441471   0.77351579
1155.00  -3.12643030   0.77551225
1156.00  -3.13845580   0.77751210
1157.00  -3.15049121   0.77951534
1158.00  -3.16253652   0.78152199
1159.00  -3.17459173   0.78353203
1160.00  -3.18665685   0.78554547
1161.00  -3.19873186   0.78756231
1162.00  -3.21081677   0.78958257
1163.00  -3.22291158   0.79160623
1164.00  -3.23501629   0.79363330
1165.00  -3.24713089   0.79566379
1166.00  -3.25925539   0.79769770
1167.00  -3.27138977   0.79973503
1168.00  -3.28353405   0.80177578
1169.00  -3.29568822   0.80381995
1170.00  -3.30785228   0.80586756
1171.00  -3.32002622   0.80791859
1172.00  -3.33221005   0.80997306
1173.00  -3.34440377   0.81203097
1174.00  -3.35660736   0.81409232
1175.00  -3.36882084   0.81615710
1176.00  -3.38104420   0.81822534
1177.00  -3.39327745   0.82029702
1178.00  -3.40552056   0.82237215
1179.00  -3.41777356   0.82445073
1180.00  -3.43003643   0.82653276
1181.00  -3.44230918   0.82861826
1182.00  -3.45459179   0.83070722
1183.00  -3.46688428   0.83279964
1184.00  -3.47918664   0.83489552
1185.00  -3.49149887   0.83699488
1186.00  -3.50382097   0.83909770
1187.00  -3.51615294   0.84120400
1188.00  -3.52849477   0.84331378
1189.00  -3.54084646   0.84542703
1190.00  -3.55320802   0.84754377
1191.00  -3.56557943   0.84966400
1192.00  -3.57796071   0.85178771
1193.00  -3.59035185   0.85391491
1194.00  -3.60275284   0.85604560
1195.00  -3.61516369   0.85817979
1196.00  -3.62758439   0.86031748
1197.00  -3.64001495   0.86245867
1198.00  -3.65245536   0.86460336
1199.00  -3.66490562   0.86675156
1200.00  -3.67736573   0.86890327
1201.00  -3.68983569   0.87105848
1202.00  -3.70231550   0.87321722
1203.00  -3.71480515   0.87537947
1204.00  -3.72730465   0.87754524
1205.00  -3.73981398   0.87971453
1206.00  -3.75233316   0.88188735
1207.00  -3.76486219   0.88406369
1208.00  -3.77740105   0.88624357
1209.00  -3.78994974   0.88842697
1210.00  -3.80250828   0.89061392
1211.00  -3.81507665   0.89280440
1212.00  -3.82765485   0.89499842
1213.00  -3.84024288   0.89719599
1214.00  -3.85284075   0.89939710
1215.00  -3.86544845   0.90160176
1216.00  -3.87806597   0.90380998
1217.00  -3.89069332   0.90602174
1218.00  -3.90333050   0.90823707
1219.00  -3.91597750   0.91045595
1220.00  -3.92863433   0.91267840
1221.00  -3.94130098   0.91490441
1222.00  -3.95397744   0.91713399
1223.00  -3.96666373   0.91936714
1224.00  -3.97935983   0.92160386
1225.00  -3.99206575   0.92384416
1226.00  -4.00478149   0.92608804
1227.00  -4.01750704   0.92833549
1228.00  -4.03024240   0.93058653
1229.00  -4.04298758   0.93284116
1230.00  -4.05574256   0.93509937
1231.00  -4.06850735   0.93736118
1232.00  -4.08128195   0.93962658
1233.00  -4.09406635   0.94189558
1234.00  -4.10686056   0.94416818
1235.00  -4.11966457   0.94644438
1236.00  -4.13247839   0.94872418
1237.00  -4.14530200   0.95100759
1238.00  -4.15813542   0.95329462
1239.00  -4.17097863   0.95558525
1240.00  -4.18383163   0.95787950
1241.00  -4.19669444   0.96017737
1242.00  -4.20956703   0.96247886
1243.00  -4.22244942   0.96478397
1244.00  -4.23534160   0.96709271
1245.00  -4.24824357   0.96940507
1246.00  -4.26115532   0.97172107
1247.00  -4.27407687   0.97404070
1248.00  -4.28700820   0.97636397
1249.00  -4.29994931   0.97869088
1250.00  -4.31290020   0.98102143
1251.00  -4.32586088   0.98335562
1252.00  -4.33883134   0.98569346
1253.00  -4.35181158   0.98803495
1254.00  -4.36480159   0.99038009
1255.00  -4.37780138   0.99272889
1256.00  -4.39081094   0.99508135
1257.00  -4.40383028   0.99743746
1258.00  -4.41685939   0.99979724
1259.00  -4.42989827   1.00216069
1260.00  -4.44294692   1.00452780
1261.00  -4.45600533   1.00689858
1262.00  -4.46907352   1.00927304
1263.00  -4.48215146   1.01165117
1264.00  -4.49523918   1.01403298
1265.00  -4.50833665   1.01641848
1266.00  -4.52144388   1.01880765
1267.00  -4.53456088   1.02120052
1268.00  -4.54768763   1.02359707
1269.00  -4.56082414   1.02599731
1270.00  -4.57397040   1.02840125
1271.00  -4.58712642   1.03080889
1272.00  -4.60029219   1.03322023
1273.00  -4.61346772   1.03563527
1274.00  -4.62665299   1.03805401
1275.00  -4.63984801   1.04047646
1276.00  -4.65305278   1.04290262
1277.00  -4.66626729   1.04533250
1278.00  -4.67949155   1.04776609
1279.00  -4.69272555   1.05020340
1280.00  -4.70596929   1.05264443
1281.00  -4.71922278   1.05508918
1282.00  -4.73248600   1.05753766
1283.00  -4.74575896   1.05998987
1284.00  -4.75904165   1.06244581
1285.00  -4.77233408   1.06490548
1286.00  -4.78563625   1.06736889
1287.00  -4.79894814   1.06983604
1288.00  -4.81226977   1.07230693
1289.00  -4.82560112   1.07478156
1290.00  -4.83894220   1.07725994
1291.00  -4.85229301   1.07974207
1292.00  -4.86565354   1.08222796
1293.00  -4.87902380   1.08471760
1294.00  -4.89240378   1.08721099
1295.00  -4.90579348   1.08970815
1296.00  -4.91919290   1.09220907
1297.00  -4.93260203   1.09471375
1298.00  -4.94602089   1.09722220
1299.00  -4.95944946   1.09973442
1300.00  -4.97288774   1.10225042
1301.00  -4.98633573   1.10477019
1302.00  -4.99979344   1.10729374
1303.00  -5.01326085   1.10982107
1304.00  -5.02673797   1.11235219
1305.00  -5.04022480   1.11488709
1306.00  -5.05372134   1.11742577
1307.00  -5.06722757   1.11996825
1308.00  -5.08074351   1.12251453
1309.00  -5.09426915   1.12506460
1310.00  -5.10780450   1.12761847
1311.00  -5.12134953   1.13017614
1312.00  -5.13490427   1.13273762
1313.00  -5.14846870   1.13530290
1314.00  -5.16204282   1.13787200
1315.00  -5.17562664   1.14044490
1316.00  -5.18922015   1.14302162
1317.00  -5.20282335   1.14560216
1318.00  -5.21643623   1.14818652
1319.00  -5.23005881   1.15077470
1320.00  -5.24369106   1.15336670
1321.00  -5.25733301   1.15596254
1322.00  -5.27098463   1.15856220
1323.00  -5.28464594   1.16116570
1324.00  -5.29831692   1.16377303
1325.00  -5.31199759   1.16638420
1326.00  -5.32568793   1.16899921
1327.00  -5.33938794   1.17161806
1328.00  -5.35309763   1.17424077
1329.00  -5.36681699   1.17686731
1330.00  -5.38054603   1.17949771
1331.00  -5.39428473   1.18213197
1332.00  -5.40803310   1.18477008
1333.00  -5.42179114   1.18741205
1334.00  -5.43555884   1.19005788
1335.00  -5.44933621   1.19270757
1336.00  -5.46312324   1.19536114
1337.00  -5.47691993   1.19801857
1338.00  -5.49072628   1.20067987
1339.00  -5.50454229   1.20334505
1340.00  -5.51836795   1.20601410
1341.00  -5.53220327   1.20868703
1342.00  -5.54604825   1.21136385
1343.00  -5.55990287   1.21404455
1344.00  -5.57376715   1.21672914
1345.00  -5.58764108   1.21941762
1346.00  -5.60152465   1.22210999
1347.00  -5.61541787   1.22480625
1348.00  -5.62932074   1.22750642
1349.00  -5.64323325   1.23021048
1350.00  -5.65715540   1.23291845
1351.00  -5.67108719   1.23563032
1352.00  -5.68502863   1.23834610
1353.00  -5.69897970   1.24106579
1354.00  -5.71294040   1.24378939
1355.00  -5.72691074   1.24651691
1356.00  -5.74089072   1.24924835
1357.00  -5.75488033   1.25198371
1358.00  -5.76887956   1.25472299
1359.00  -5.78288843   1.25746619
1360.00  -5.79690693   1.26021333
1361.00  -5.81093505   1.26296440
1362.00  -5.82497279   1.26571940
1363.00  -5.83902016   1.26847834
1364.00  -5.85307715   1.27124121
1365.00  -5.86714376   1.27400803
1366.00  -5.88121999   1.27677879
1367.00  -5.89530584   1.27955350
1368.00  -5.90940130   1.28233216
1369.00  -5.92350638   1.28511477
1370.00  -5.93762107   1.28790133
1371.00  -5.95174537   1.29069185
1372.00  -5.96587929   1.29348633
1373.00  -5.98002281   1.29628477
1374.00  -5.99417594   1.29908717
1375.00  -6.00833867   1.30189355
1376.00  -6.02251101   1.30470389
1377.00  -6.03669295   1.30751820
1378.00  -6.05088449   1.31033649
1379.00  -6.06508563   1.31315876
1380.00  -6.07929637   1.31598501
1381.00  -6.09351671   1.31881523
1382.00  -6.10774664   1.32164945
1383.00  -6.12198617   1.32448765
1384.00  -6.13623529   1.32732984
1385.00  -6.15049400   1.33017602
1386.00  -6.16476229   1.33302620
1387.00  -6.17904018   1.33588038
1388.00  -6.19332765   1.33873856
1389.00  -6.20762471   1.34160074
1390.00  -6.22193135   1.34446692
1391.00  -6.23624758   1.34733712
1392.00  -6.25057338   1.35021132
1393.00  -6.26490876   1.35308954
1394.00  -6.27925372   1.35597177
1395.00  -6.29360826   1.35885802
1396.00  -6.30797237   1.36174829
1397.00  -6.32234606   1.36464258
1398.00  -6.33672931   1.36754090
1399.00  -6.35112214   1.37044325
1400.00  -6.36552453   1.37334963
1401.00  -6.37993649   1.37626004
1402.00  -6.39435802   1.37917449
1403.00  -6.40878911   1.38209298
1404.00  -6.42322977   1.38501550
1405.00  -6.43767998   1.38794208
1406.00  -6.45213975   1.39087269
1407.00  -6.46660909   1.39380736
1408.00  -6.48108798   1.39674608
1409.00  -6.49557642   1.39968885
1410.00  -6.51007442   1.40263567
1411.00  -6.52458197   1.40558656
1412.00  -6.53909907   1.40854151
1413.00  -6.55362572   1.41150052
1414.00  -6.56816191   1.41446360
1415.00  -6.58270765   1.41743074
1416.00  -6.59726294   1.42040196
1417.00  -6.61182777   1.42337725
1418.00  -6.62640214   1.42635662
1419.00  -6.64098606   1.42934007
1420.00  -6.65557951   1.43232760
1421.00  -6.67018249   1.43531921
1422.00  -6.68479501   1.43831491
1423.00  -6.69941707   1.44131470
1424.00  -6.71404866   1.44431858
1425.00  -6.72868978   1.44732655
1426.00  -6.74334043   1.45033862
1427.00  -6.75800061   1.45335479
1428.00  -6.77267031   1.45637507
1429.00  -6.78734954   1.45939944
1430.00  -6.80203829   1.46242793
1431.00  -6.81673656   1.46546052
1432.00  -6.83144436   1.46849722
1433.00  -6.84616167   1.47153804
1434.00  -6.86088850   1.47458298
1435.00  -6.87562484   1.47763203
1436.00  -6.89037070   1.48068521
1437.00  -6.90512607   1.48374251
1438.00  -6.91989096   1.48680394
1439.00  -6.93466535   1.48986950
1440.00  -6.94944925   1.49293919
1441.00  -6.96424266   1.49601301
1442.00  -6.97904557   1.49909098
1443.00  -6.99385798   1.50217308
1444.00  -7.00867990   1.50525932
1445.00  -7.02351132   1.50834971
1446.00  -7.03835224   1.51144424
1447.00  -7.05320265   1.51454293
1448.00  -7.06806256   1.51764577
1449.00  -7.08293196   1.52075276
1450.00  -7.09781086   1.52386391
1451.00  -7.11269925   1.52697921
1452.00  -7.12759712   1.53009868
1453.00  -7.14250449   1.53322232
1454.00  -7.15742134   1.53635012
1455.00  -7.17234768   1.53948209
1456.00  -7.18728350   1.54261824
1457.00  -7.20222880   1.54575856
1458.00  -7.21718358   1.54890305
1459.00  -7.23214785   1.55205173
1460.00  -7.24712158   1.55520458
1461.00  -7.26210480   1.55836163
1462.00  -7.27709749   1.56152286
1463.00  -7.29209965   1.56468827
1464.00  -7.30711128   1.56785789
1465.00  -7.32213238   1.57103169
1466.00  -7.33716295   1.57420970
1467.00  -7.35220299   1.57739190
1468.00  -7.36725249   1.58057830
1469.00  -7.38231145   1.58376891
1470.00  -7.39737988   1.58696373
1471.00  -7.41245776   1.59016276
1472.00  -7.42754511   1.59336599
1473.00  -7.44264191   1.59657345
1474.00  -7.45774817   1.59978512
1475.00  -7.47286388   1.60300101
1476.00  -7.48798904   1.60622112
1477.00  -7.50312366   1.60944546
1478.00  -7.51826772   1.61267402
1479.00  -7.53342123   1.61590681
1480.00  -7.54858419   1.61914384
1481.00  -7.56375659   1.62238510
1482.00  -7.57893844   1.62563059
1483.00  -7.59412972   1.62888033
1484.00  -7.60933045   1.63213431
1485.00  -7.62454062   1.63539253
1486.00  -7.63976022   1.63865500
1487.00  -7.65498925   1.64192172
1488.00  -7.67022772   1.64519269
1489.00  -7.68547563   1.64846792
1490.00  -7.70073296   1.65174740
1491.00  -7.71599972   1.65503114
1492.00  -7.73127591   1.65831915
1493.00  -7.74656152   1.66161141
1494.00  -7.76185656   1.66490795
1495.00  -7.77716102   1.66820875
1496.00  -7.79247490   1.67151383
1497.00  -7.80779821   1.67482318
1498.00  -7.82313093   1.67813680
1499.00  -7.83847306   1.68145471
1500.00  -7.85382461   1.68477690
1501.00  -7.86918558   1.68810337
1502.00  -7.88455595   1.69143413
1503.00  -7.89993574   1.69476918
1504.00  -7.91532493   1.69810851
1505.00  -7.93072353   1.70145215
1506.00  -7.94613153   1.70480008
1507.00  -7.96154894   1.70815230
1508.00  -7.97697575   1.71150883
1509.00  -7.99241196   1.71486967
1510.00  -8.00785757   1.71823481
1511.00  -8.02331258   1.72160426
1512.00  -8.03877698   1.72497802
1513.00  -8.05425078   1.72835609
1514.00  -8.06973397   1.73173848
1515.00  -8.08522655   1.73512519
1516.00  -8.10072852   1.73851622
1517.00  -8.11623988   1.74191157
1518.00  -8.13176062   1.74531125
1519.00  -8.14729075   1.74871526
1520.00  -8.16283026   1.75212360
1521.00  -8.17837915   1.75553627
1522.00  -8.19393742   1.75895328
1523.00  -8.20950507   1.76237462
1524.00  -8.22508209   1.76580031
1525.00  -8.24066850   1.76923034
1526.00  -8.25626427   1.77266472
1527.00  -8.27186941   1.77610344
1528.00  -8.28748393   1.77954651
1529.00  -8.30310781   1.78299394
1530.00  -8.31874107   1.78644572
1531.00  -8.33438368   1.78990187
1532.00  -8.35003566   1.79336237
1533.00  -8.36569700   1.79682723
1534.00  -8.38136771   1.80029646
1535.00  -8.39704777   1.80377006
1536.00  -8.41273718   1.80724803
1537.00  -8.42843596   1.81073037
1538.00  -8.44414409   1.81421708
1539.00  -8.45986157   1.81770817
1540.00  -8.47558840   1.82120365
1541.00  -8.49132458   1.82470350
1542.00  -8.50707011   1.82820774
1543.00  -8.52282498   1.83171637
1544.00  -8.53858920   1.83522939
1545.00  -8.55436276   1.83874680
1546.00  -8.57014566   1.84226860
1547.00  -8.58593790   1.84579480
1548.00  -8.60173948   1.84932540
1549.00  -8.61755039   1.85286040
1550.00  -8.63337064   1.85639981
1551.00  -8.64920022   1.85994362
1552.00  -8.66503914   1.86349184
1553.00  -8.68088738   1.86704448
1554.00  -8.69674495   1.87060153
1555.00  -8.71261185   1.87416299
1556.00  -8.72848807   1.87772888
1557.00  -8.74437362   1.88129918
1558.00  -8.76026848   1.88487391
1559.00  -8.77617267   1.88845306
1560.00  -8.79208618   1.89203665
1561.00  -8.80800900   1.89562466
1562.00  -8.82394113   1.89921711
1563.00  -8.83988258   1.90281400
1564.00  -8.85583335   1.90641532
1565.00  -8.87179342   1.91002108
1566.00  -8.88776280   1.91363129
1567.00  -8.90374149   1.91724594
1568.00  -8.91972948   1.92086504
1569.00  -8.93572678   1.92448859
1570.00  -8.95173337   1.92811660
1571.00  -8.96774927   1.93174906
1572.00  -8.98377447   1.93538597
1573.00  -8.99980896   1.93902735
1574.00  -9.01585275   1.94267319
1575.00  -9.03190584   1.94632350
1576.00  -9.04796821   1.94997827
1577.00  -9.06403988   1.95363751
1578.00  -9.08012083   1.95730123
1579.00  -9.09621107   1.96096941
1580.00  -9.11231060   1.96464208
1581.00  -9.12841941   1.96831923
1582.00  -9.14453750   1.97200085
1583.00  -9.16066488   1.97568697
1584.00  -9.17680153   1.97937756
1585.00  -9.19294746   1.98307265
1586.00  -9.20910266   1.98677223
1587.00  -9.22526714   1.99047631
1588.00  -9.24144089   1.99418487
1589.00  -9.25762392   1.99789794
1590.00  -9.27381621   2.00161551
1591.00  -9.29001776   2.00533759
1592.00  -9.30622859   2.00906417
1593.00  -9.32244868   2.01279525
1594.00  -9.33867803   2.01653085
1595.00  -9.35491664   2.02027096
1596.00  -9.37116451   2.02401559
1597.00  -9.38742163   2.02776474
1598.00  -9.40368802   2.03151840
1599.00  -9.41996365   2.03527659
1600.00  -9.43624854   2.03903930
1601.00  -9.45254268   2.04280655
1602.00  -9.46884607   2.04657832
1603.00  -9.48515871   2.05035462
1604.00  -9.50148059   2.05413546
1605.00  -9.51781172   2.05792083
1606.00  -9.53415209   2.06171075
1607.00  -9.55050170   2.06550521
1608.00  -9.56686054   2.06930421
1609.00  -9.58322863   2.07310776
1610.00  -9.59960595   2.07691585
1611.00  -9.61599251   2.08072850
1612.00  -9.63238830   2.08454571
1613.00  -9.64879331   2.08836747
1614.00  -9.66520756   2.09219378
1615.00  -9.68163104   2.09602466
1616.00  -9.69806374   2.09986011
1617.00  -9.71450566   2.10370011
1618.00  -9.73095681   2.10754469
1619.00  -9.74741717   2.11139384
1620.00  -9.76388676   2.11524756
1621.00  -9.78036556   2.11910585
1622.00  -9.79685358   2.12296873
1623.00  -9.81335082   2.12683618
1624.00  -9.82985726   2.13070822
1625.00  -9.84637292   2.13458484
1626.00  -9.86289778   2.13846605
1627.00  -9.87943185   2.14235185
1628.00  -9.89597513   2.14624224
1629.00  -9.91252761   2.15013722
1630.00  -9.92908929   2.15403680
1631.00  -9.94566018   2.15794098
1632.00  -9.96224026   2.16184977
1633.00  -9.97882954   2.16576315
1634.00  -9.99542801   2.16968114
1635.00 -10.01203568   2.17360375
1636.00 -10.02865254   2.17753096
1637.00 -10.04527859   2.18146278
1638.00 -10.06191383   2.18539922
1639.00 -10.07855826   2.18934028
1640.00 -10.09521187   2.19328596
1641.00 -10.11187466   2.19723627
1642.00 -10.12854664   2.20119120
1643.00 -10.14522780   2.20515075
1644.00 -10.16191813   2.20911494
1645.00 -10.17861764   2.21308376
1646.00 -10.19532633   2.21705721
1647.00 -10.21204419   2.22103530
1648.00 -10.22877122   2.22501803
1649.00 -10.24550742   2.22900540
1650.00 -10.26225279   2.23299741
1651.00 -10.27900733   2.23699408
1652.00 -10.29577103   2.24099539
1653.00 -10.31254389   2.24500135
1654.00 -10.32932592   2.24901196
1655.00 -10.34611710   2.25302724
1656.00 -10.36291744   2.25704717
1657.00 -10.37972694   2.26107176
1658.00 -10.39654560   2.26510101
1659.00 -10.41337340   2.26913493
1660.00 -10.43021036   2.27317352
1661.00 -10.44705647   2.27721677
1662.00 -10.46391172   2.28126470
1663.00 -10.48077612   2.28531731
1664.00 -10.49764967   2.28937459
1665.00 -10.51453235   2.29343655
1666.00 -10.53142418   2.29750319
1667.00 -10.54832515   2.30157452
1668.00 -10.56523526   2.30565053
1669.00 -10.58215450   2.30973123
1670.00 -10.59908287   2.31381662
1671.00 -10.61602038   2.31790671
1672.00 -10.63296701   2.32200149
1673.00 -10.64992278   2.32610097
1674.00 -10.66688767   2.33020516
1675.00 -10.68386169   2.33431404
1676.00 -10.70084483   2.33842763
1677.00 -10.71783710   2.34254593
1678.00 -10.73483848   2.34666893
1679.00 -10.75184898   2.35079665
1680.00 -10.76886860   2.35492909
1681.00 -10.78589734   2.35906624
1682.00 -10.80293519   2.36320811
1683.00 -10.81998215   2.36735470
1684.00 -10.83703822   2.37150602
1685.00 -10.85410339   2.37566206
1686.00 -10.87117768   2.37982283
1687.00 -10.88826106   2.38398833
1688.00 -10.90535356   2.38815857
1689.00 -10.92245515   2.39233354
1690.00 -10.93956584   2.39651324
1691.00 -10.95668563   2.40069769
1692.00 -10.97381451   2.40488688
1693.00 -10.99095249   2.40908082
1694.00 -11.00809957   2.41327950
1695.00 -11.02525573   2.41748294
1696.00 -11.04242098   2.42169112
1697.00 -11.05959532   2.42590406
1698.00 -11.07677875   2.43012176
1699.00 -11.09397125   2.43434421
1700.00 -11.11117284   2.43857143
1701.00 -11.12838352   2.44280341
1702.00 -11.14560327   2.44704015
1703.00 -11.16283209   2.45128166
1704.00 -11.18006999   2.45552795
1705.00 -11.19731697   2.45977900
1706.00 -11.21457301   2.46403484
1707.00 -11.23183813   2.46829545
1708.00 -11.24911232   2.47256083
1709.00 -11.26639557   2.47683100
1710.00 -11.28368788   2.48110596
1711.00 -11.30098926   2.48538570
1712.00 -11.31829970   2.48967023
1713.00 -11.33561920   2.49395955
1714.00 -11.35294775   2.49825367
1715.00 -11.37028537   2.50255258
1716.00 -11.38763203   2.50685629
1717.00 -11.40498775   2.51116480
1718.00 -11.42235252   2.51547811
1719.00 -11.43972634   2.51979623
1720.00 -11.45710920   2.52411916
1721.00 -11.47450111   2.52844689
1722.00 -11.49190207   2.53277944
1723.00 -11.50931206   2.53711680
1724.00 -11.52673110   2.54145898
1725.00 -11.54415917   2.54580598
1726.00 -11.56159628   2.55015780
1727.00 -11.57904243   2.55451444
1728.00 -11.59649761   2.55887591
1729.00 -11.61396182   2.56324220
1730.00 -11.63143506   2.56761333
1731.00 -11.64891732   2.57198929
1732.00 -11.66640861   2.57637009
1733.00 -11.68390893   2.58075572
1734.00 -11.70141827   2.58514619
1735.00 -11.71893663   2.58954150
1736.00 -11.73646401   2.59394166
1737.00 -11.75400041   2.59834666
1738.00 -11.77154582   2.60275652
1739.00 -11.78910024   2.60717122
1740.00 -11.80666368   2.61159078
1741.00 -11.82423612   2.61601519
1742.00 -11.84181758   2.62044446
1743.00 -11.85940804   2.62487859
1744.00 -11.87700751   2.62931759
1745.00 -11.89461597   2.63376145
1746.00 -11.91223344   2.63821017
1747.00 -11.92985991   2.64266377
1748.00 -11.94749538   2.64712223
1749.00 -11.96513984   2.65158558
1750.00 -11.98279330   2.65605379
1751.00 -12.00045575   2.66052689
1752.00 -12.01812719   2.66500486
1753.00 -12.03580762   2.66948772
1754.00 -12.05349703   2.67397547
1755.00 -12.07119543   2.67846810
1756.00 -12.08890282   2.68296562
1757.00 -12.10661918   2.68746804
1758.00 -12.12434453   2.69197535
1759.00 -12.14207885   2.69648755
1760.00 -12.15982215   2.70100466
1761.00 -12.17757442   2.70552666
1762.00 -12.19533567   2.71005357
1763.00 -12.21310589   2.71458539
1764.00 -12.23088507   2.71912211
1765.00 -12.24867323   2.72366375
1766.00 -12.26647034   2.72821029
1767.00 -12.28427643   2.73276175
1768.00 -12.30209147   2.73731813
1769.00 -12.31991548   2.74187943
1770.00 -12.33774844   2.74644565
1771.00 -12.35559036   2.75101679
1772.00 -12.37344123   2.75559286
1773.00 -12.39130106   2.76017386
1774.00 -12.40916984   2.76475979
1775.00 -12.42704757   2.76935065
1776.00 -12.44493424   2.77394645
1777.00 -12.46282986   2.77854718
1778.00 -12.48073443   2.78315286
1779.00 -12.49864793   2.78776348
1780.00 -12.51657038   2.79237904
1781.00 -12.53450177   2.79699954
1782.00 -12.55244209   2.80162500
1783.00 -12.57039134   2.80625541
1784.00 -12.58834954   2.81089077
1785.00 -12.60631666   2.81553109
1786.00 -12.62429271   2.82017636
1787.00 -12.64227769   2.82482659
1788.00 -12.66027159   2.82948179
1789.00 -12.67827442   2.83414195
1790.00 -12.69628617   2.83880708
1791.00 -12.71430684   2.84347718
1792.00 -12.73233643   2.84815224
1793.00 -12.75037494   2.85283229
1794.00 -12.76842236   2.85751730
1795.00 -12.78647870   2.86220730
1796.00 -12.80454395   2.86690228
1797.00 -12.82261810   2.87160224
1798.00 -12.84070117   2.87630718
1799.00 -12.85879314   2.88101711
1800.00 -12.87689401   2.88573203
1801.00 -12.89500379   2.89045194
1802.00 -12.91312247   2.89517685
1803.00 -12.93125004   2.89990675
1804.00 -12.94938651   2.90464165
1805.00 -12.96753188   2.90938155
1806.00 -12.98568614   2.91412645
1807.00 -13.00384930   2.91887636
1808.00 -13.02202134   2.92363127
1809.00 -13.04020227   2.92839119
1810.00 -13.05839209   2.93315613
1811.00 -13.07659079   2.93792608
1812.00 -13.09479837   2.94270105
1813.00 -13.11301483   2.94748103
1814.00 -13.13124017   2.95226603
1815.00 -13.14947439   2.95705606
1816.00 -13.16771749   2.96185111
1817.00 -13.18596945   2.96665119
1818.00 -13.20423029   2.97145630
1819.00 -13.22250000   2.97626644
1820.00 -13.24077857   2.98108162
1821.00 -13.25906602   2.98590183
1822.00 -13.27736232   2.99072708
1823.00 -13.29566749   2.99555737
1824.00 -13.31398152   3.00039270
1825.00 -13.33230440   3.00523308
1826.00 -13.35063615   3.01007850
1827.00 -13.36897674   3.01492898
1828.00 -13.38732620   3.01978450
1829.00 -13.40568450   3.02464508
1830.00 -13.42405165   3.02951072
1831.00 -13.44242765   3.03438141
1832.00 -13.46081249   3.03925717
1833.00 -13.47920618   3.04413799
1834.00 -13.49760871   3.04902387
1835.00 -13.51602009   3.05391482
1836.00 -13.53444029   3.05881084
1837.00 -13.55286934   3.06371193
1838.00 -13.57130722   3.06861809
1839.00 -13.58975394   3.07352933
1840.00 -13.60820948   3.07844565
1841.00 -13.62667385   3.08336705
1842.00 -13.64514705   3.08829353
1843.00 -13.66362908   3.09322510
1844.00 -13.68211993   3.09816176
1845.00 -13.70061960   3.10310350
1846.00 -13.71912809   3.10805033
1847.00 -13.73764540   3.11300226
1848.00 -13.75617153   3.11795929
1849.00 -13.77470647   3.12292141
1850.00 -13.79325022   3.12788863
1851.00 -13.81180279   3.13286096
1852.00 -13.83036416   3.13783839
1853.00 -13.84893434   3.14282092
1854.00 -13.86751332   3.14780857
1855.00 -13.88610111   3.15280133
1856.00 -13.90469770   3.15779920
1857.00 -13.92330309   3.16280218
1858.00 -13.94191727   3.16781029
1859.00 -13.96054025   3.17282351
1860.00 -13.97917203   3.17784186
1861.00 -13.99781260   3.18286533
1862.00 -14.01646196   3.18789393
1863.00 -14.03512010   3.19292765
1864.00 -14.05378703   3.19796651
1865.00 -14.07246275   3.20301050
1866.00 -14.09114725   3.20805962
1867.00 -14.10984053   3.21311389
1868.00 -14.12854260   3.21817329
1869.00 -14.14725343   3.22323784
1870.00 -14.16597305   3.22830752
1871.00 -14.18470143   3.23338236
1872.00 -14.20343859   3.23846234
1873.00 -14.22218452   3.24354748
1874.00 -14.24093922   3.24863776
1875.00 -14.25970268   3.25373321
1876.00 -14.27847490   3.25883381
1877.00 -14.29725589   3.26393956
1878.00 -14.31604564   3.26905048
1879.00 -14.33484415   3.27416657
1880.00 -14.35365141   3.27928782
1881.00 -14.37246743   3.28441424
1882.00 -14.39129220   3.28954582
1883.00 -14.41012572   3.29468258
1884.00 -14.42896800   3.29982452
1885.00 -14.44781902   3.30497163
1886.00 -14.46667878   3.31012392
1887.00 -14.48554729   3.31528139
1888.00 -14.50442454   3.32044405
1889.00 -14.52331053   3.32561189
1890.00 -14.54220526   3.33078492
1891.00 -14.56110872   3.33596313
1892.00 -14.58002092   3.34114654
1893.00 -14.59894185   3.34633515
1894.00 -14.61787151   3.35152895
1895.00 -14.63680990   3.35672795
1896.00 -14.65575701   3.36193214
1897.00 -14.67471285   3.36714155
1898.00 -14.69367742   3.37235615
1899.00 -14.71265070   3.37757597
1900.00 -14.73163271   3.38280099
1901.00 -14.75062343   3.38803122
1902.00 -14.76962286   3.39326667
1903.00 -14.78863101   3.39850733
1904.00 -14.80764787   3.40375322
1905.00 -14.82667344   3.40900432
1906.00 -14.84570772   3.41426064
1907.00 -14.86475071   3.41952219
1908.00 -14.88380239   3.42478896
1909.00 -14.90286279   3.43006096
1910.00 -14.92193188   3.43533820
1911.00 -14.94100967   3.44062066
1912.00 -14.96009615   3.44590836
1913.00 -14.97919133   3.45120130
1914.00 -14.99829520   3.45649948
1915.00 -15.01740777   3.46180290
1916.00 -15.03652902   3.46711156
1917.00 -15.05565896   3.47242547
1918.00 -15.07479758   3.47774463
1919.00 -15.09394489   3.48306903
1920.00 -15.11310088   3.48839869
1921.00 -15.13226555   3.49373361
1922.00 -15.15143889   3.49907377
1923.00 -15.17062092   3.50441920
1924.00 -15.18981161   3.50976989
1925.00 -15.20901098   3.51512584
1926.00 -15.22821901   3.52048706
1927.00 -15.24743572   3.52585354
1928.00 -15.26666109   3.53122530
1929.00 -15.28589512   3.53660232
1930.00 -15.30513782   3.54198462
1931.00 -15.32438918   3.54737219
1932.00 -15.34364919   3.55276504
1933.00 -15.36291787   3.55816318
1934.00 -15.38219519   3.56356659
1935.00 -15.40148117   3.56897529
1936.00 -15.42077581   3.57438927
1937.00 -15.44007908   3.57980854
1938.00 -15.45939101   3.58523311
1939.00 -15.47871158   3.59066296
1940.00 -15.49804080   3.59609811
1941.00 -15.51737865   3.60153856
1942.00 -15.53672515   3.60698431
1943.00 -15.55608028   3.61243535
1944.00 -15.57544405   3.61789171
1945.00 -15.59481645   3.62335336
1946.00 -15.61419749   3.62882033
1947.00 -15.63358715   3.63429260
1948.00 -15.65298544   3.63977019
1949.00 -15.67239236   3.64525309
1950.00 -15.69180790   3.65074130
1951.00 -15.71123206   3.65623483
1952.00 -15.73066485   3.66173369
1953.00 -15.75010625   3.66723786
1954.00 -15.76955627   3.67274737
1955.00 -15.78901490   3.67826219
1956.00 -15.80848215   3.68378235
1957.00 -15.82795800   3.68930784
1958.00 -15.84744247   3.69483865
1959.00 -15.86693554   3.70037481
1960.00 -15.88643722   3.70591630
1961.00 -15.90594749   3.71146313
1962.00 -15.92546637   3.71701530
1963.00 -15.94499385   3.72257282
1964.00 -15.96452993   3.72813568
1965.00 -15.98407460   3.73370389
1966.00 -16.00362787   3.73927745
1967.00 -16.02318972   3.74485636
1968.00 -16.04276017   3.75044063
1969.00 -16.06233920   3.75603025
1970.00 -16.08192682   3.76162522
1971.00 -16.10152302   3.76722556
1972.00 -16.12112780   3.77283127
1973.00 -16.14074117   3.77844233
1974.00 -16.16036311   3.78405876
1975.00 -16.17999363   3.78968056
1976.00 -16.19963272   3.79530774
1977.00 -16.21928038   3.80094028
1978.00 -16.23893661   3.80657820
1979.00 -16.25860142   3.81222150
1980.00 -16.27827478   3.81787017
1981.00 -16.29795672   3.82352423
1982.00 -16.31764721   3.82918367
1983.00 -16.33734626   3.83484849
1984.00 -16.35705388   3.84051871
1985.00 -16.37677005   3.84619431
1986.00 -16.39649477   3.85187530
1987.00 -16.41622805   3.85756169
1988.00 -16.43596988   3.86325347
1989.00 -16.45572025   3.86895065
1990.00 -16.47547918   3.87465324
1991.00 -16.49524664   3.88036122
1992.00 -16.51502265   3.88607461
1993.00 -16.53480721   3.89179340
1994.00 -16.55460030   3.89751760
1995.00 -16.57440192   3.90324721
1996.00 -16.59421209   3.90898224
1997.00 -16.61403078   3.91472268
1998.00 -16.63385801   3.92046853
1999.00 -16.65369377   3.92621981
2000.00 -16.67353805   3.93197650
