wavelength(nm)         real         imag
200.00   3.80008960   0.00190947
201.00   3.79908837   0.00193825
202.00   3.79808215   0.00196731
203.00   3.79707094   0.00199667
204.00   3.79605475   0.00202631
205.00   3.79503358   0.00205625
206.00   3.79400741   0.00208648
207.00   3.79297626   0.00211701
208.00   3.79194013   0.00214783
209.00   3.79089901   0.00217895
210.00   3.78985291   0.00221037
211.00   3.78880181   0.00224209
212.00   3.78774574   0.00227411
213.00   3.78668468   0.00230643
214.00   3.78561863   0.00233906
215.00   3.78454760   0.00237199
216.00   3.78347159   0.00240523
217.00   3.78239059   0.00243879
218.00   3.78130460   0.00247265
219.00   3.78021364   0.00250682
220.00   3.77911768   0.00254131
221.00   3.77801675   0.00257611
222.00   3.77691083   0.00261123
223.00   3.77579992   0.00264666
224.00   3.77468403   0.00268242
225.00   3.77356316   0.00271849
226.00   3.77243731   0.00275489
227.00   3.77130647   0.00279161
228.00   3.77017064   0.00282865
229.00   3.76902984   0.00286602
230.00   3.76788405   0.00290372
231.00   3.76673328   0.00294175
232.00   3.76557753   0.00298011
233.00   3.76441679   0.00301880
234.00   3.76325107   0.00305782
235.00   3.76208037   0.00309718
236.00   3.76090469   0.00313687
237.00   3.75972402   0.00317690
238.00   3.75853837   0.00321727
239.00   3.75734774   0.00325798
240.00   3.75615213   0.00329903
241.00   3.75495154   0.00334043
242.00   3.75374597   0.00338217
243.00   3.75253541   0.00342425
244.00   3.75131987   0.00346669
245.00   3.75009935   0.00350947
246.00   3.74887386   0.00355260
247.00   3.74764338   0.00359609
248.00   3.74640792   0.00363993
249.00   3.74516748   0.00368412
250.00   3.74392205   0.00372867
251.00   3.74267165   0.00377357
252.00   3.74141627   0.00381884
253.00   3.74015591   0.00386446
254.00   3.73889057   0.00391045
255.00   3.73762025   0.00395680
256.00   3.73634495   0.00400351
257.00   3.73506467   0.00405059
258.00   3.73377941   0.00409804
259.00   3.73248917   0.00414586
260.00   3.73119395   0.00419405
261.00   3.72989375   0.00424261
262.00   3.72858858   0.00429154
263.00   3.72727843   0.00434084
264.00   3.72596329   0.00439053
265.00   3.72464318   0.00444059
266.00   3.72331809   0.00449103
267.00   3.72198803   0.00454185
268.00   3.72065298   0.00459305
269.00   3.71931296   0.00464463
270.00   3.71796796   0.00469660
271.00   3.71661798   0.00474895
272.00   3.71526303   0.00480170
273.00   3.71390310   0.00485483
274.00   3.71253819   0.00490835
275.00   3.71116830   0.00496226
276.00   3.70979344   0.00501657
277.00   3.70841360   0.00507127
278.00   3.70702879   0.00512636
279.00   3.70563900   0.00518186
280.00   3.70424423   0.00523775
281.00   3.70284449   0.00529404
282.00   3.70143977   0.00535073
283.00   3.70003007   0.00540783
284.00   3.69861540   0.00546533
285.00   3.69719576   0.00552324
286.00   3.69577114   0.00558155
287.00   3.69434154   0.00564028
288.00   3.69290697   0.00569941
289.00   3.69146743   0.00575895
290.00   3.69002291   0.00581891
291.00   3.68857341   0.00587929
292.00   3.68711895   0.00594007
293.00   3.68565950   0.00600128
294.00   3.68419509   0.00606290
295.00   3.68272570   0.00612495
296.00   3.68125134   0.00618741
297.00   3.67977200   0.00625030
298.00   3.67828769   0.00631361
299.00   3.67679841   0.00637735
300.00   3.67530415   0.00644152
301.00   3.67380492   0.00650611
302.00   3.67230072   0.00657114
303.00   3.67079155   0.00663659
304.00   3.66927740   0.00670248
305.00   3.66775828   0.00676881
306.00   3.66623419   0.00683556
307.00   3.66470513   0.00690276
308.00   3.66317110   0.00697039
309.00   3.66163209   0.00703847
310.00   3.66008812   0.00710698
311.00   3.65853917   0.00717594
312.00   3.65698525   0.00724535
313.00   3.65542636   0.00731520
314.00   3.65386251   0.00738549
315.00   3.65229368   0.00745623
316.00   3.65071988   0.00752743
317.00   3.64914111   0.00759907
318.00   3.64755737   0.00767117
319.00   3.64596866   0.00774373
320.00   3.64437498   0.00781673
321.00   3.64277633   0.00789020
322.00   3.64117271   0.00796412
323.00   3.63956412   0.00803850
324.00   3.63795057   0.00811335
325.00   3.63633204   0.00818866
326.00   3.63470855   0.00826443
327.00   3.63308009   0.00834066
328.00   3.63144666   0.00841737
329.00   3.62980826   0.00849454
330.00   3.62816490   0.00857218
331.00   3.62651657   0.00865030
332.00   3.62486327   0.00872888
333.00   3.62320500   0.00880794
334.00   3.62154176   0.00888748
335.00   3.61987356   0.00896749
336.00   3.61820040   0.00904798
337.00   3.61652226   0.00912895
338.00   3.61483916   0.00921040
339.00   3.61315109   0.00929233
340.00   3.61145806   0.00937475
341.00   3.60976006   0.00945766
342.00   3.60805710   0.00954105
343.00   3.60634917   0.00962492
344.00   3.60463627   0.00970929
345.00   3.60291841   0.00979415
346.00   3.60119559   0.00987950
347.00   3.59946780   0.00996535
348.00   3.59773505   0.01005169
349.00   3.59599733   0.01013852
350.00   3.59425465   0.01022586
351.00   3.59250700   0.01031369
352.00   3.59075439   0.01040203
353.00   3.58899682   0.01049087
354.00   3.58723428   0.01058021
355.00   3.58546678   0.01067006
356.00   3.58369432   0.01076041
357.00   3.58191689   0.01085127
358.00   3.58013450   0.01094265
359.00   3.57834715   0.01103453
360.00   3.57655484   0.01112692
361.00   3.57475757   0.01121983
362.00   3.57295533   0.01131326
363.00   3.57114813   0.01140720
364.00   3.56933597   0.01150165
365.00   3.56751885   0.01159663
366.00   3.56569677   0.01169213
367.00   3.56386973   0.01178815
368.00   3.56203773   0.01188469
369.00   3.56020076   0.01198176
370.00   3.55835884   0.01207936
371.00   3.55651196   0.01217748
372.00   3.55466012   0.01227613
373.00   3.55280331   0.01237532
374.00   3.55094155   0.01247503
375.00   3.54907483   0.01257528
376.00   3.54720315   0.01267607
377.00   3.54532651   0.01277739
378.00   3.54344491   0.01287924
379.00   3.54155836   0.01298164
380.00   3.53966684   0.01308458
381.00   3.53777037   0.01318806
382.00   3.53586894   0.01329208
383.00   3.53396256   0.01339665
384.00   3.53205121   0.01350176
385.00   3.53013491   0.01360743
386.00   3.52821365   0.01371364
387.00   3.52628744   0.01382040
388.00   3.52435626   0.01392771
389.00   3.52242014   0.01403558
390.00   3.52047905   0.01414400
391.00   3.51853301   0.01425298
392.00   3.51658202   0.01436251
393.00   3.51462607   0.01447261
394.00   3.51266516   0.01458326
395.00   3.51069930   0.01469448
396.00   3.50872848   0.01480626
397.00   3.50675271   0.01491860
398.00   3.50477199   0.01503151
399.00   3.50278631   0.01514499
400.00   3.50079568   0.01525904
401.00   3.49880009   0.01537366
402.00   3.49679955   0.01548884
403.00   3.49479406   0.01560461
404.00   3.49278361   0.01572094
405.00   3.49076821   0.01583785
406.00   3.48874786   0.01595534
407.00   3.48672256   0.01607341
408.00   3.48469230   0.01619206
409.00   3.48265709   0.01631129
410.00   3.48061693   0.01643110
411.00   3.47857182   0.01655150
412.00   3.47652176   0.01667248
413.00   3.47446675   0.01679405
414.00   3.47240678   0.01691621
415.00   3.47034187   0.01703896
416.00   3.46827200   0.01716230
417.00   3.46619719   0.01728623
418.00   3.46411742   0.01741076
419.00   3.46203270   0.01753588
420.00   3.45994304   0.01766160
421.00   3.45784843   0.01778792
422.00   3.45574886   0.01791484
423.00   3.45364435   0.01804236
424.00   3.45153489   0.01817048
425.00   3.44942048   0.01829921
426.00   3.44730113   0.01842854
427.00   3.44517682   0.01855848
428.00   3.44304757   0.01868903
429.00   3.44091337   0.01882018
430.00   3.43877422   0.01895195
431.00   3.43663013   0.01908433
432.00   3.43448109   0.01921733
433.00   3.43232710   0.01935094
434.00   3.43016817   0.01948517
435.00   3.42800429   0.01962001
436.00   3.42583547   0.01975548
437.00   3.42366170   0.01989156
438.00   3.42148298   0.02002827
439.00   3.41929932   0.02016560
440.00   3.41711071   0.02030356
441.00   3.41491716   0.02044214
442.00   3.41271867   0.02058136
443.00   3.41051523   0.02072120
444.00   3.40830685   0.02086167
445.00   3.40609352   0.02100277
446.00   3.40387525   0.02114451
447.00   3.40165204   0.02128689
448.00   3.39942389   0.02142990
449.00   3.39719079   0.02157354
450.00   3.39495275   0.02171783
451.00   3.39270976   0.02186276
452.00   3.39046184   0.02200833
453.00   3.38820897   0.02215454
454.00   3.38595117   0.02230140
455.00   3.38368842   0.02244891
456.00   3.38142073   0.02259706
457.00   3.37914810   0.02274586
458.00   3.37687053   0.02289531
459.00   3.37458802   0.02304542
460.00   3.37230057   0.02319618
461.00   3.37000818   0.02334759
462.00   3.36771085   0.02349966
463.00   3.36540858   0.02365238
464.00   3.36310137   0.02380577
465.00   3.36078922   0.02395981
466.00   3.35847214   0.02411452
467.00   3.35615011   0.02426989
468.00   3.35382315   0.02442593
469.00   3.35149125   0.02458263
470.00   3.34915442   0.02474000
471.00   3.34681264   0.02489804
472.00   3.34446593   0.02505674
473.00   3.34211429   0.02521612
474.00   3.33975770   0.02537618
475.00   3.33739618   0.02553690
476.00   3.33502973   0.02569831
477.00   3.33265834   0.02586039
478.00   3.33028201   0.02602314
479.00   3.32790075   0.02618658
480.00   3.32551455   0.02635070
481.00   3.32312342   0.02651551
482.00   3.32072735   0.02668099
483.00   3.31832635   0.02684717
484.00   3.31592042   0.02701403
485.00   3.31350955   0.02718157
486.00   3.31109375   0.02734981
487.00   3.30867302   0.02751874
488.00   3.30624736   0.02768837
489.00   3.30381676   0.02785868
490.00   3.30138123   0.02802969
491.00   3.29894076   0.02820140
492.00   3.29649537   0.02837381
493.00   3.29404504   0.02854692
494.00   3.29158979   0.02872072
495.00   3.28912960   0.02889523
496.00   3.28666448   0.02907045
497.00   3.28419443   0.02924637
498.00   3.28171945   0.02942299
499.00   3.27923954   0.02960033
500.00   3.27675471   0.02977837
501.00   3.27426494   0.02995713
502.00   3.27177024   0.03013659
503.00   3.26927062   0.03031677
504.00   3.26676606   0.03049767
505.00   3.26425658   0.03067928
506.00   3.26174217   0.03086161
507.00   3.25922283   0.03104466
508.00   3.25669857   0.03122843
509.00   3.25416938   0.03141292
510.00   3.25163526   0.03159814
511.00   3.24909621   0.03178408
512.00   3.24655224   0.03197075
513.00   3.24400334   0.03215814
514.00   3.24144952   0.03234626
515.00   3.23889077   0.03253512
516.00   3.23632710   0.03272470
517.00   3.23375850   0.03291502
518.00   3.23118497   0.03310608
519.00   3.22860653   0.03329787
520.00   3.22602315   0.03349039
521.00   3.22343486   0.03368366
522.00   3.22084164   0.03387767
523.00   3.21824350   0.03407241
524.00   3.21564043   0.03426791
525.00   3.21303244   0.03446414
526.00   3.21041953   0.03466112
527.00   3.20780170   0.03485885
528.00   3.20517895   0.03505733
529.00   3.20255127   0.03525656
530.00   3.19991868   0.03545654
531.00   3.19728116   0.03565727
532.00   3.19463872   0.03585875
533.00   3.19199136   0.03606099
534.00   3.18933908   0.03626399
535.00   3.18668188   0.03646775
536.00   3.18401977   0.03667227
537.00   3.18135273   0.03687754
538.00   3.17868077   0.03708359
539.00   3.17600390   0.03729039
540.00   3.17332210   0.03749796
541.00   3.17063539   0.03770630
542.00   3.16794376   0.03791540
543.00   3.16524722   0.03812528
544.00   3.16254575   0.03833592
545.00   3.15983937   0.03854734
546.00   3.15712808   0.03875953
547.00   3.15441186   0.03897250
548.00   3.15169074   0.03918624
549.00   3.14896469   0.03940076
550.00   3.14623373   0.03961606
551.00   3.14349786   0.03983215
552.00   3.14075707   0.04004901
553.00   3.13801136   0.04026666
554.00   3.13526074   0.04048509
555.00   3.13250521   0.04070431
556.00   3.12974476   0.04092431
557.00   3.12697940   0.04114511
558.00   3.12420913   0.04136669
559.00   3.12143395   0.04158907
560.00   3.11865385   0.04181224
561.00   3.11586884   0.04203621
562.00   3.11307892   0.04226097
563.00   3.11028408   0.04248653
564.00   3.10748434   0.04271288
565.00   3.10467968   0.04294004
566.00   3.10187012   0.04316800
567.00   3.09905564   0.04339676
568.00   3.09623626   0.04362633
569.00   3.09341196   0.04385670
570.00   3.09058276   0.04408788
571.00   3.08774864   0.04431987
572.00   3.08490962   0.04455267
573.00   3.08206569   0.04478628
574.00   3.07921685   0.04502070
575.00   3.07636310   0.04525594
576.00   3.07350445   0.04549199
577.00   3.07064089   0.04572886
578.00   3.06777242   0.04596655
579.00   3.06489904   0.04620505
580.00   3.06202076   0.04644438
581.00   3.05913757   0.04668453
582.00   3.05624948   0.04692551
583.00   3.05335648   0.04716731
584.00   3.05045858   0.04740993
585.00   3.04755577   0.04765339
586.00   3.04464806   0.04789767
587.00   3.04173544   0.04814279
588.00   3.03881792   0.04838873
589.00   3.03589550   0.04863551
590.00   3.03296817   0.04888313
591.00   3.03003594   0.04913158
592.00   3.02709881   0.04938087
593.00   3.02415678   0.04963100
594.00   3.02120984   0.04988197
595.00   3.01825800   0.05013378
596.00   3.01530127   0.05038643
597.00   3.01233963   0.05063993
598.00   3.00937309   0.05089428
599.00   3.00640165   0.05114947
600.00   3.00342531   0.05140551
601.00   3.00044407   0.05166240
602.00   2.99745793   0.05192014
603.00   2.99446689   0.05217874
604.00   2.99147095   0.05243819
605.00   2.98847012   0.05269850
606.00   2.98546439   0.05295966
607.00   2.98245376   0.05322168
608.00   2.97943823   0.05348456
609.00   2.97641780   0.05374831
610.00   2.97339248   0.05401291
611.00   2.97036226   0.05427838
612.00   2.96732715   0.05454472
613.00   2.96428714   0.05481192
614.00   2.96124224   0.05507999
615.00   2.95819244   0.05534893
616.00   2.95513774   0.05561874
617.00   2.95207815   0.05588942
618.00   2.94901367   0.05616098
619.00   2.94594429   0.05643341
620.00   2.94287002   0.05670672
621.00   2.93979086   0.05698091
622.00   2.93670681   0.05725597
623.00   2.93361786   0.05753192
624.00   2.93052402   0.05780875
625.00   2.92742529   0.05808646
626.00   2.92432167   0.05836506
627.00   2.92121315   0.05864454
628.00   2.91809975   0.05892491
629.00   2.91498145   0.05920617
630.00   2.91185827   0.05948832
631.00   2.90873019   0.05977136
632.00   2.90559723   0.06005530
633.00   2.90245938   0.06034013
634.00   2.89931664   0.06062585
635.00   2.89616901   0.06091248
636.00   2.89301649   0.06120000
637.00   2.88985908   0.06148842
638.00   2.88669679   0.06177774
639.00   2.88352961   0.06206797
640.00   2.88035755   0.06235910
641.00   2.87718059   0.06265113
642.00   2.87399875   0.06294407
643.00   2.87081203   0.06323792
644.00   2.86762042   0.06353268
645.00   2.86442393   0.06382836
646.00   2.86122255   0.06412494
647.00   2.85801629   0.06442244
648.00   2.85480514   0.06472085
649.00   2.85158911   0.06502018
650.00   2.84836820   0.06532042
651.00   2.84514240   0.06562159
652.00   2.84191173   0.06592368
653.00   2.83867617   0.06622669
654.00   2.83543572   0.06653062
655.00   2.83219040   0.06683548
656.00   2.82894020   0.06714126
657.00   2.82568511   0.06744797
658.00   2.82242515   0.06775561
659.00   2.81916030   0.06806418
660.00   2.81589058   0.06837369
661.00   2.81261597   0.06868412
662.00   2.80933649   0.06899549
663.00   2.80605213   0.06930780
664.00   2.80276289   0.06962104
665.00   2.79946877   0.06993522
666.00   2.79616978   0.07025034
667.00   2.79286591   0.07056641
668.00   2.78955716   0.07088341
669.00   2.78624353   0.07120136
670.00   2.78292503   0.07152026
671.00   2.77960165   0.07184010
672.00   2.77627340   0.07216089
673.00   2.77294027   0.07248263
674.00   2.76960227   0.07280532
675.00   2.76625940   0.07312896
676.00   2.76291165   0.07345356
677.00   2.75955902   0.07377911
678.00   2.75620153   0.07410562
679.00   2.75283916   0.07443309
680.00   2.74947191   0.07476151
681.00   2.74609980   0.07509090
682.00   2.74272281   0.07542125
683.00   2.73934096   0.07575256
684.00   2.73595423   0.07608483
685.00   2.73256263   0.07641808
686.00   2.72916616   0.07675229
687.00   2.72576482   0.07708746
688.00   2.72235862   0.07742361
689.00   2.71894754   0.07776073
690.00   2.71553159   0.07809883
691.00   2.71211078   0.07843789
692.00   2.70868510   0.07877794
693.00   2.70525455   0.07911896
694.00   2.70181913   0.07946096
695.00   2.69837884   0.07980393
696.00   2.69493369   0.08014789
697.00   2.69148368   0.08049284
698.00   2.68802879   0.08083876
699.00   2.68456905   0.08118567
700.00   2.68110443   0.08153357
701.00   2.67763495   0.08188246
702.00   2.67416061   0.08223233
703.00   2.67068141   0.08258320
704.00   2.66719734   0.08293506
705.00   2.66370840   0.08328791
706.00   2.66021461   0.08364176
707.00   2.65671595   0.08399660
708.00   2.65321243   0.08435244
709.00   2.64970405   0.08470928
710.00   2.64619081   0.08506712
711.00   2.64267270   0.08542596
712.00   2.63914974   0.08578581
713.00   2.63562191   0.08614666
714.00   2.63208923   0.08650851
715.00   2.62855168   0.08687137
716.00   2.62500928   0.08723524
717.00   2.62146202   0.08760012
718.00   2.61790990   0.08796602
719.00   2.61435292   0.08833292
720.00   2.61079109   0.08870084
721.00   2.60722440   0.08906977
722.00   2.60365285   0.08943972
723.00   2.60007644   0.08981069
724.00   2.59649518   0.09018268
725.00   2.59290907   0.09055569
726.00   2.58931809   0.09092972
727.00   2.58572227   0.09130478
728.00   2.58212159   0.09168086
729.00   2.57851605   0.09205796
730.00   2.57490567   0.09243610
731.00   2.57129042   0.09281526
732.00   2.56767033   0.09319545
733.00   2.56404538   0.09357668
734.00   2.56041559   0.09395893
735.00   2.55678093   0.09434223
736.00   2.55314143   0.09472655
737.00   2.54949708   0.09511192
738.00   2.54584788   0.09549832
739.00   2.54219383   0.09588577
740.00   2.53853492   0.09627425
741.00   2.53487117   0.09666378
742.00   2.53120257   0.09705435
743.00   2.52752912   0.09744597
744.00   2.52385082   0.09783863
745.00   2.52016768   0.09823235
746.00   2.51647969   0.09862711
747.00   2.51278685   0.09902292
748.00   2.50908916   0.09941979
749.00   2.50538663   0.09981770
750.00   2.50167925   0.10021668
751.00   2.49796703   0.10061671
752.00   2.49424996   0.10101779
753.00   2.49052805   0.10141994
754.00   2.48680130   0.10182315
755.00   2.48306970   0.10222741
756.00   2.47933325   0.10263274
757.00   2.47559197   0.10303914
758.00   2.47184584   0.10344660
759.00   2.46809487   0.10385513
760.00   2.46433906   0.10426473
761.00   2.46057840   0.10467539
762.00   2.45681291   0.10508713
763.00   2.45304258   0.10549994
764.00   2.44926740   0.10591383
765.00   2.44548739   0.10632879
766.00   2.44170253   0.10674482
767.00   2.43791284   0.10716194
768.00   2.43411831   0.10758013
769.00   2.43031894   0.10799941
770.00   2.42651473   0.10841976
771.00   2.42270569   0.10884120
772.00   2.41889181   0.10926373
773.00   2.41507309   0.10968734
774.00   2.41124954   0.11011204
775.00   2.40742115   0.11053783
776.00   2.40358793   0.11096470
777.00   2.39974987   0.11139267
778.00   2.39590698   0.11182174
779.00   2.39205925   0.11225189
780.00   2.38820669   0.11268314
781.00   2.38434930   0.11311549
782.00   2.38048707   0.11354894
783.00   2.37662002   0.11398349
784.00   2.37274813   0.11441914
785.00   2.36887141   0.11485589
786.00   2.36498986   0.11529374
787.00   2.36110347   0.11573270
788.00   2.35721226   0.11617277
789.00   2.35331622   0.11661394
790.00   2.34941535   0.11705622
791.00   2.34550965   0.11749962
792.00   2.34159912   0.11794412
793.00   2.33768376   0.11838974
794.00   2.33376358   0.11883647
795.00   2.32983856   0.11928432
796.00   2.32590873   0.11973329
797.00   2.32197406   0.12018337
798.00   2.31803457   0.12063458
799.00   2.31409025   0.12108691
800.00   2.31014111   0.12154035
801.00   2.30618715   0.12199493
802.00   2.30222836   0.12245063
803.00   2.29826474   0.12290745
804.00   2.29429631   0.12336541
805.00   2.29032305   0.12382449
806.00   2.28634496   0.12428470
807.00   2.28236206   0.12474605
808.00   2.27837433   0.12520853
809.00   2.27438178   0.12567214
810.00   2.27038442   0.12613689
811.00   2.26638223   0.12660278
812.00   2.26237522   0.12706981
813.00   2.25836339   0.12753797
814.00   2.25434674   0.12800728
815.00   2.25032528   0.12847773
816.00   2.24629899   0.12894933
817.00   2.24226789   0.12942207
818.00   2.23823197   0.12989596
819.00   2.23419124   0.13037099
820.00   2.23014568   0.13084718
821.00   2.22609531   0.13132452
822.00   2.22204013   0.13180301
823.00   2.21798013   0.13228265
824.00   2.21391532   0.13276345
825.00   2.20984569   0.13324540
826.00   2.20577125   0.13372852
827.00   2.20169199   0.13421279
828.00   2.19760792   0.13469822
829.00   2.19351904   0.13518482
830.00   2.18942535   0.13567257
831.00   2.18532684   0.13616149
832.00   2.18122353   0.13665158
833.00   2.17711540   0.13714284
834.00   2.17300246   0.13763526
835.00   2.16888471   0.13812885
836.00   2.16476216   0.13862362
837.00   2.16063479   0.13911955
838.00   2.15650262   0.13961666
839.00   2.15236564   0.14011495
840.00   2.14822385   0.14061441
841.00   2.14407725   0.14111505
842.00   2.13992584   0.14161687
843.00   2.13576963   0.14211987
844.00   2.13160862   0.14262405
845.00   2.12744280   0.14312942
846.00   2.12327217   0.14363597
847.00   2.11909674   0.14414370
848.00   2.11491650   0.14465263
849.00   2.11073146   0.14516274
850.00   2.10654162   0.14567404
851.00   2.10234698   0.14618653
852.00   2.09814753   0.14670022
853.00   2.09394328   0.14721510
854.00   2.08973423   0.14773117
855.00   2.08552038   0.14824844
856.00   2.08130173   0.14876691
857.00   2.07707827   0.14928658
858.00   2.07285002   0.14980745
859.00   2.06861697   0.15032952
860.00   2.06437912   0.15085280
861.00   2.06013648   0.15137728
862.00   2.05588903   0.15190296
863.00   2.05163679   0.15242986
864.00   2.04737975   0.15295796
865.00   2.04311791   0.15348727
866.00   2.03885128   0.15401780
867.00   2.03457985   0.15454953
868.00   2.03030363   0.15508248
869.00   2.02602261   0.15561665
870.00   2.02173680   0.15615203
871.00   2.01744620   0.15668863
872.00   2.01315080   0.15722645
873.00   2.00885061   0.15776549
874.00   2.00454563   0.15830575
875.00   2.00023585   0.15884724
876.00   1.99592129   0.15938995
877.00   1.99160193   0.15993389
878.00   1.98727778   0.16047905
879.00   1.98294885   0.16102545
880.00   1.97861512   0.16157307
881.00   1.97427661   0.16212192
882.00   1.96993330   0.16267201
883.00   1.96558521   0.16322333
884.00   1.96123233   0.16377589
885.00   1.95687466   0.16432968
886.00   1.95251221   0.16488472
887.00   1.94814497   0.16544099
888.00   1.94377294   0.16599850
889.00   1.93939613   0.16655725
890.00   1.93501454   0.16711725
891.00   1.93062816   0.16767849
892.00   1.92623699   0.16824098
893.00   1.92184105   0.16880472
894.00   1.91744032   0.16936970
895.00   1.91303480   0.16993594
896.00   1.90862451   0.17050342
897.00   1.90420943   0.17107216
898.00   1.89978958   0.17164215
899.00   1.89536494   0.17221340
900.00   1.89093552   0.17278591
901.00   1.88650132   0.17335967
902.00   1.88206235   0.17393469
903.00   1.87761859   0.17451098
904.00   1.87317006   0.17508852
905.00   1.86871675   0.17566733
906.00   1.86425866   0.17624740
907.00   1.85979579   0.17682874
908.00   1.85532815   0.17741135
909.00   1.85085573   0.17799523
910.00   1.84637854   0.17858037
911.00   1.84189657   0.17916679
912.00   1.83740983   0.17975448
913.00   1.83291832   0.18034344
914.00   1.82842203   0.18093368
915.00   1.82392097   0.18152519
916.00   1.81941513   0.18211799
917.00   1.81490453   0.18271206
918.00   1.81038915   0.18330741
919.00   1.80586900   0.18390405
920.00   1.80134408   0.18450197
921.00   1.79681439   0.18510117
922.00   1.79227993   0.18570166
923.00   1.78774071   0.18630344
924.00   1.78319671   0.18690650
925.00   1.77864794   0.18751086
926.00   1.77409441   0.18811650
927.00   1.76953611   0.18872344
928.00   1.76497305   0.18933167
929.00   1.76040522   0.18994120
930.00   1.75583262   0.19055202
931.00   1.75125526   0.19116415
932.00   1.74667313   0.19177757
933.00   1.74208624   0.19239229
934.00   1.73749458   0.19300831
935.00   1.73289816   0.19362564
936.00   1.72829698   0.19424427
937.00   1.72369104   0.19486421
938.00   1.71908034   0.19548545
939.00   1.71446487   0.19610800
940.00   1.70984464   0.19673187
941.00   1.70521966   0.19735704
942.00   1.70058991   0.19798352
943.00   1.69595540   0.19861132
944.00   1.69131614   0.19924044
945.00   1.68667212   0.19987087
946.00   1.68202333   0.20050262
947.00   1.67736980   0.20113568
948.00   1.67271150   0.20177007
949.00   1.66804845   0.20240578
950.00   1.66338064   0.20304281
951.00   1.65870808   0.20368117
952.00   1.65403077   0.20432085
953.00   1.64934870   0.20496186
954.00   1.64466187   0.20560419
955.00   1.63997029   0.20624786
956.00   1.63527396   0.20689286
957.00   1.63057288   0.20753919
958.00   1.62586704   0.20818685
959.00   1.62115646   0.20883585
960.00   1.61644112   0.20948618
961.00   1.61172104   0.21013785
962.00   1.60699620   0.21079086
963.00   1.60226661   0.21144521
964.00   1.59753228   0.21210090
965.00   1.59279320   0.21275794
966.00   1.58804937   0.21341632
967.00   1.58330079   0.21407604
968.00   1.57854746   0.21473711
969.00   1.57378939   0.21539953
970.00   1.56902658   0.21606329
971.00   1.56425901   0.21672841
972.00   1.55948671   0.21739488
973.00   1.55470966   0.21806270
974.00   1.54992786   0.21873188
975.00   1.54514133   0.21940241
976.00   1.54035005   0.22007430
977.00   1.53555403   0.22074755
978.00   1.53075326   0.22142216
979.00   1.52594776   0.22209813
980.00   1.52113751   0.22277546
981.00   1.51632253   0.22345415
982.00   1.51150280   0.22413421
983.00   1.50667834   0.22481564
984.00   1.50184914   0.22549844
985.00   1.49701520   0.22618260
986.00   1.49217652   0.22686813
987.00   1.48733311   0.22755504
988.00   1.48248495   0.22824331
989.00   1.47763207   0.22893297
990.00   1.47277445   0.22962399
991.00   1.46791209   0.23031640
992.00   1.46304500   0.23101018
993.00   1.45817317   0.23170534
994.00   1.45329661   0.23240188
995.00   1.44841532   0.23309981
996.00   1.44352930   0.23379911
997.00   1.43863854   0.23449981
998.00   1.43374305   0.23520188
999.00   1.42884284   0.23590535
1000.00   1.42393789   0.23661020
1001.00   1.41902821   0.23731645
1002.00   1.41411380   0.23802408
1003.00   1.40919467   0.23873311
1004.00   1.40427080   0.23944353
1005.00   1.39934221   0.24015535
1006.00   1.39440889   0.24086856
1007.00   1.38947085   0.24158317
1008.00   1.38452808   0.24229918
1009.00   1.37958058   0.24301659
1010.00   1.37462836   0.24373540
1011.00   1.36967142   0.24445561
1012.00   1.36470975   0.24517723
1013.00   1.35974335   0.24590025
1014.00   1.35477224   0.24662468
1015.00   1.34979640   0.24735052
1016.00   1.34481584   0.24807777
1017.00   1.33983056   0.24880643
1018.00   1.33484056   0.24953650
1019.00   1.32984583   0.25026798
1020.00   1.32484639   0.25100088
1021.00   1.31984223   0.25173520
1022.00   1.31483335   0.25247093
1023.00   1.30981975   0.25320808
1024.00   1.30480144   0.25394665
1025.00   1.29977841   0.25468664
1026.00   1.29475066   0.25542805
1027.00   1.28971819   0.25617089
1028.00   1.28468101   0.25691515
1029.00   1.27963912   0.25766084
1030.00   1.27459251   0.25840795
1031.00   1.26954119   0.25915650
1032.00   1.26448515   0.25990647
1033.00   1.25942440   0.26065788
1034.00   1.25435894   0.26141072
1035.00   1.24928877   0.26216499
1036.00   1.24421389   0.26292070
1037.00   1.23913429   0.26367785
1038.00   1.23404999   0.26443643
1039.00   1.22896097   0.26519646
1040.00   1.22386725   0.26595792
1041.00   1.21876882   0.26672082
1042.00   1.21366568   0.26748517
1043.00   1.20855783   0.26825097
1044.00   1.20344528   0.26901820
1045.00   1.19832802   0.26978689
1046.00   1.19320606   0.27055702
1047.00   1.18807939   0.27132861
1048.00   1.18294801   0.27210164
1049.00   1.17781194   0.27287613
1050.00   1.17267115   0.27365207
1051.00   1.16752567   0.27442947
1052.00   1.16237548   0.27520832
1053.00   1.15722059   0.27598863
1054.00   1.15206100   0.27677039
1055.00   1.14689671   0.27755362
1056.00   1.14172772   0.27833831
1057.00   1.13655403   0.27912446
1058.00   1.13137564   0.27991208
1059.00   1.12619255   0.28070116
1060.00   1.12100476   0.28149170
1061.00   1.11581228   0.28228372
1062.00   1.11061510   0.28307720
1063.00   1.10541322   0.28387216
1064.00   1.10020665   0.28466858
1065.00   1.09499538   0.28546648
1066.00   1.08977942   0.28626585
1067.00   1.08455876   0.28706670
1068.00   1.07933341   0.28786903
1069.00   1.07410336   0.28867283
1070.00   1.06886863   0.28947811
1071.00   1.06362920   0.29028488
1072.00   1.05838508   0.29109312
1073.00   1.05313627   0.29190285
1074.00   1.04788277   0.29271406
1075.00   1.04262458   0.29352676
1076.00   1.03736170   0.29434095
1077.00   1.03209413   0.29515662
1078.00   1.02682188   0.29597378
1079.00   1.02154493   0.29679244
1080.00   1.01626330   0.29761259
1081.00   1.01097699   0.29843423
1082.00   1.00568599   0.29925736
1083.00   1.00039030   0.30008199
1084.00   0.99508993   0.30090812
1085.00   0.98978487   0.30173575
1086.00   0.98447513   0.30256488
1087.00   0.97916071   0.30339550
1088.00   0.97384160   0.30422763
1089.00   0.96851782   0.30506127
1090.00   0.96318935   0.30589641
1091.00   0.95785620   0.30673305
1092.00   0.95251837   0.30757121
1093.00   0.94717586   0.30841087
1094.00   0.94182867   0.30925204
1095.00   0.93647681   0.31009473
1096.00   0.93112026   0.31093893
1097.00   0.92575904   0.31178464
1098.00   0.92039315   0.31263186
1099.00   0.91502257   0.31348061
1100.00   0.90964732   0.31433087
1101.00   0.90426740   0.31518265
1102.00   0.89888280   0.31603595
1103.00   0.89349353   0.31689077
1104.00   0.88809958   0.31774712
1105.00   0.88270096   0.31860498
1106.00   0.87729767   0.31946438
1107.00   0.87188971   0.32032530
1108.00   0.86647707   0.32118775
1109.00   0.86105977   0.32205173
1110.00   0.85563780   0.32291724
1111.00   0.85021115   0.32378428
1112.00   0.84477984   0.32465286
1113.00   0.83934386   0.32552297
1114.00   0.83390321   0.32639461
1115.00   0.82845790   0.32726780
1116.00   0.82300792   0.32814252
1117.00   0.81755327   0.32901878
1118.00   0.81209396   0.32989658
1119.00   0.80662998   0.33077592
1120.00   0.80116134   0.33165681
1121.00   0.79568804   0.33253924
1122.00   0.79021007   0.33342322
1123.00   0.78472744   0.33430875
1124.00   0.77924015   0.33519582
1125.00   0.77374820   0.33608444
1126.00   0.76825158   0.33697462
1127.00   0.76275031   0.33786635
1128.00   0.75724438   0.33875963
1129.00   0.75173379   0.33965446
1130.00   0.74621854   0.34055085
1131.00   0.74069863   0.34144880
1132.00   0.73517406   0.34234831
1133.00   0.72964484   0.34324938
1134.00   0.72411097   0.34415201
1135.00   0.71857243   0.34505620
1136.00   0.71302925   0.34596196
1137.00   0.70748140   0.34686928
1138.00   0.70192891   0.34777816
1139.00   0.69637176   0.34868862
1140.00   0.69080996   0.34960064
1141.00   0.68524351   0.35051424
1142.00   0.67967240   0.35142940
1143.00   0.67409665   0.35234614
1144.00   0.66851625   0.35326445
1145.00   0.66293119   0.35418434
1146.00   0.65734149   0.35510580
1147.00   0.65174714   0.35602884
1148.00   0.64614814   0.35695346
1149.00   0.64054449   0.35787966
1150.00   0.63493620   0.35880745
1151.00   0.62932326   0.35973681
1152.00   0.62370568   0.36066776
1153.00   0.61808345   0.36160029
1154.00   0.61245658   0.36253442
1155.00   0.60682506   0.36347012
1156.00   0.60118890   0.36440742
1157.00   0.59554810   0.36534631
1158.00   0.58990266   0.36628679
1159.00   0.58425257   0.36722887
1160.00   0.57859785   0.36817253
1161.00   0.57293848   0.36911780
1162.00   0.56727448   0.37006466
1163.00   0.56160584   0.37101311
1164.00   0.55593256   0.37196317
1165.00   0.55025464   0.37291483
1166.00   0.54457208   0.37386809
1167.00   0.53888489   0.37482295
1168.00   0.53319306   0.37577942
1169.00   0.52749660   0.37673749
1170.00   0.52179550   0.37769717
1171.00   0.51608977   0.37865846
1172.00   0.51037940   0.37962136
1173.00   0.50466440   0.38058586
1174.00   0.49894477   0.38155198
1175.00   0.49322051   0.38251972
1176.00   0.48749162   0.38348906
1177.00   0.48175810   0.38446003
1178.00   0.47601994   0.38543261
1179.00   0.47027716   0.38640680
1180.00   0.46452975   0.38738262
1181.00   0.45877771   0.38836006
1182.00   0.45302105   0.38933912
1183.00   0.44725975   0.39031980
1184.00   0.44149384   0.39130211
1185.00   0.43572329   0.39228604
1186.00   0.42994812   0.39327160
1187.00   0.42416833   0.39425879
1188.00   0.41838391   0.39524761
1189.00   0.41259487   0.39623806
1190.00   0.40680121   0.39723014
1191.00   0.40100292   0.39822386
1192.00   0.39520002   0.39921921
1193.00   0.38939249   0.40021619
1194.00   0.38358035   0.40121481
1195.00   0.37776358   0.40221507
1196.00   0.37194220   0.40321697
1197.00   0.36611619   0.40422051
1198.00   0.36028557   0.40522570
1199.00   0.35445034   0.40623252
1200.00   0.34861048   0.40724099
1201.00   0.34276601   0.40825111
1202.00   0.33691693   0.40926287
1203.00   0.33106323   0.41027629
1204.00   0.32520492   0.41129135
1205.00   0.31934199   0.41230806
1206.00   0.31347445   0.41332642
1207.00   0.30760230   0.41434644
1208.00   0.30172554   0.41536811
1209.00   0.29584417   0.41639144
1210.00   0.28995818   0.41741643
1211.00   0.28406759   0.41844307
1212.00   0.27817239   0.41947137
1213.00   0.27227258   0.42050134
1214.00   0.26636816   0.42153296
1215.00   0.26045914   0.42256625
1216.00   0.25454551   0.42360121
1217.00   0.24862727   0.42463783
1218.00   0.24270443   0.42567612
1219.00   0.23677698   0.42671607
1220.00   0.23084493   0.42775770
1221.00   0.22490828   0.42880099
1222.00   0.21896702   0.42984596
1223.00   0.21302116   0.43089260
1224.00   0.20707070   0.43194092
1225.00   0.20111564   0.43299091
1226.00   0.19515598   0.43404258
1227.00   0.18919172   0.43509592
1228.00   0.18322286   0.43615095
1229.00   0.17724940   0.43720766
1230.00   0.17127135   0.43826605
1231.00   0.16528869   0.43932612
1232.00   0.15930144   0.44038788
1233.00   0.15330960   0.44145132
1234.00   0.14731316   0.44251645
1235.00   0.14131212   0.44358327
1236.00   0.13530650   0.44465177
1237.00   0.12929627   0.44572197
1238.00   0.12328146   0.44679386
1239.00   0.11726205   0.44786745
1240.00   0.11123806   0.44894272
1241.00   0.10520947   0.45001970
1242.00   0.09917629   0.45109837
1243.00   0.09313852   0.45217874
1244.00   0.08709616   0.45326081
1245.00   0.08104922   0.45434457
1246.00   0.07499769   0.45543005
1247.00   0.06894157   0.45651722
1248.00   0.06288086   0.45760610
1249.00   0.05681557   0.45869668
1250.00   0.05074569   0.45978897
1251.00   0.04467123   0.46088297
1252.00   0.03859219   0.46197868
1253.00   0.03250856   0.46307610
1254.00   0.02642035   0.46417523
1255.00   0.02032755   0.46527607
1256.00   0.01423018   0.46637863
1257.00   0.00812823   0.46748291
1258.00   0.00202169   0.46858890
1259.00  -0.00408942   0.46969660
1260.00  -0.01020511   0.47080603
1261.00  -0.01632538   0.47191718
1262.00  -0.02245023   0.47303005
1263.00  -0.02857965   0.47414464
1264.00  -0.03471365   0.47526096
1265.00  -0.04085223   0.47637900
1266.00  -0.04699538   0.47749877
1267.00  -0.05314310   0.47862027
1268.00  -0.05929540   0.47974349
1269.00  -0.06545227   0.48086845
1270.00  -0.07161372   0.48199514
1271.00  -0.07777973   0.48312356
1272.00  -0.08395032   0.48425371
1273.00  -0.09012547   0.48538560
1274.00  -0.09630520   0.48651923
1275.00  -0.10248949   0.48765459
1276.00  -0.10867835   0.48879170
1277.00  -0.11487178   0.48993054
1278.00  -0.12106978   0.49107112
1279.00  -0.12727234   0.49221345
1280.00  -0.13347947   0.49335752
1281.00  -0.13969117   0.49450334
1282.00  -0.14590743   0.49565090
1283.00  -0.15212825   0.49680021
1284.00  -0.15835363   0.49795127
1285.00  -0.16458358   0.49910408
1286.00  -0.17081809   0.50025864
1287.00  -0.17705716   0.50141495
1288.00  -0.18330080   0.50257302
1289.00  -0.18954899   0.50373284
1290.00  -0.19580174   0.50489442
1291.00  -0.20205905   0.50605775
1292.00  -0.20832091   0.50722285
1293.00  -0.21458734   0.50838970
1294.00  -0.22085832   0.50955832
1295.00  -0.22713386   0.51072869
1296.00  -0.23341395   0.51190083
1297.00  -0.23969860   0.51307474
1298.00  -0.24598780   0.51425041
1299.00  -0.25228155   0.51542785
1300.00  -0.25857986   0.51660705
1301.00  -0.26488272   0.51778803
1302.00  -0.27119013   0.51897078
1303.00  -0.27750209   0.52015530
1304.00  -0.28381860   0.52134159
1305.00  -0.29013966   0.52252966
1306.00  -0.29646526   0.52371950
1307.00  -0.30279542   0.52491112
1308.00  -0.30913013   0.52610452
1309.00  -0.31546938   0.52729969
1310.00  -0.32181317   0.52849665
1311.00  -0.32816151   0.52969539
1312.00  -0.33451440   0.53089591
1313.00  -0.34087183   0.53209822
1314.00  -0.34723381   0.53330231
1315.00  -0.35360032   0.53450819
1316.00  -0.35997138   0.53571586
1317.00  -0.36634698   0.53692532
1318.00  -0.37272712   0.53813656
1319.00  -0.37911180   0.53934960
1320.00  -0.38550102   0.54056443
1321.00  -0.39189478   0.54178106
1322.00  -0.39829308   0.54299948
1323.00  -0.40469591   0.54421970
1324.00  -0.41110328   0.54544171
1325.00  -0.41751519   0.54666553
1326.00  -0.42393163   0.54789114
1327.00  -0.43035261   0.54911855
1328.00  -0.43677812   0.55034777
1329.00  -0.44320817   0.55157879
1330.00  -0.44964274   0.55281162
1331.00  -0.45608185   0.55404625
1332.00  -0.46252549   0.55528269
1333.00  -0.46897366   0.55652094
1334.00  -0.47542637   0.55776100
1335.00  -0.48188360   0.55900287
1336.00  -0.48834536   0.56024655
1337.00  -0.49481164   0.56149204
1338.00  -0.50128246   0.56273935
1339.00  -0.50775780   0.56398848
1340.00  -0.51423766   0.56523942
1341.00  -0.52072206   0.56649218
1342.00  -0.52721097   0.56774676
1343.00  -0.53370441   0.56900317
1344.00  -0.54020238   0.57026139
1345.00  -0.54670486   0.57152144
1346.00  -0.55321187   0.57278331
1347.00  -0.55972340   0.57404700
1348.00  -0.56623945   0.57531253
1349.00  -0.57276002   0.57657988
1350.00  -0.57928511   0.57784906
1351.00  -0.58581472   0.57912007
1352.00  -0.59234884   0.58039291
1353.00  -0.59888749   0.58166759
1354.00  -0.60543065   0.58294409
1355.00  -0.61197832   0.58422244
1356.00  -0.61853051   0.58550262
1357.00  -0.62508721   0.58678464
1358.00  -0.63164843   0.58806850
1359.00  -0.63821416   0.58935419
1360.00  -0.64478440   0.59064173
1361.00  -0.65135916   0.59193111
1362.00  -0.65793843   0.59322234
1363.00  -0.66452220   0.59451541
1364.00  -0.67111049   0.59581032
1365.00  -0.67770328   0.59710708
1366.00  -0.68430058   0.59840570
1367.00  -0.69090239   0.59970616
1368.00  -0.69750871   0.60100847
1369.00  -0.70411953   0.60231263
1370.00  -0.71073486   0.60361865
1371.00  -0.71735470   0.60492652
1372.00  -0.72397903   0.60623625
1373.00  -0.73060788   0.60754783
1374.00  -0.73724122   0.60886128
1375.00  -0.74387906   0.61017658
1376.00  -0.75052141   0.61149374
1377.00  -0.75716826   0.61281276
1378.00  -0.76381961   0.61413365
1379.00  -0.77047545   0.61545640
1380.00  -0.77713580   0.61678102
1381.00  -0.78380064   0.61810750
1382.00  -0.79046998   0.61943585
1383.00  -0.79714382   0.62076607
1384.00  -0.80382215   0.62209816
1385.00  -0.81050498   0.62343212
1386.00  -0.81719230   0.62476795
1387.00  -0.82388412   0.62610566
1388.00  -0.83058043   0.62744524
1389.00  -0.83728123   0.62878670
1390.00  -0.84398652   0.63013003
1391.00  -0.85069631   0.63147525
1392.00  -0.85741058   0.63282234
1393.00  -0.86412934   0.63417132
1394.00  -0.87085260   0.63552217
1395.00  -0.87758034   0.63687491
1396.00  -0.88431256   0.63822953
1397.00  -0.89104928   0.63958604
1398.00  -0.89779048   0.64094444
1399.00  -0.90453617   0.64230472
1400.00  -0.91128634   0.64366690
1401.00  -0.91804099   0.64503096
1402.00  -0.92480013   0.64639691
1403.00  -0.93156375   0.64776476
1404.00  -0.93833185   0.64913450
1405.00  -0.94510444   0.65050614
1406.00  -0.95188150   0.65187967
1407.00  -0.95866304   0.65325510
1408.00  -0.96544906   0.65463243
1409.00  -0.97223957   0.65601166
1410.00  -0.97903454   0.65739279
1411.00  -0.98583400   0.65877583
1412.00  -0.99263793   0.66016076
1413.00  -0.99944634   0.66154760
1414.00  -1.00625922   0.66293635
1415.00  -1.01307658   0.66432700
1416.00  -1.01989840   0.66571957
1417.00  -1.02672471   0.66711404
1418.00  -1.03355548   0.66851042
1419.00  -1.04039072   0.66990871
1420.00  -1.04723044   0.67130892
1421.00  -1.05407463   0.67271104
1422.00  -1.06092328   0.67411508
1423.00  -1.06777640   0.67552103
1424.00  -1.07463399   0.67692890
1425.00  -1.08149605   0.67833869
1426.00  -1.08836257   0.67975040
1427.00  -1.09523356   0.68116403
1428.00  -1.10210902   0.68257958
1429.00  -1.10898894   0.68399706
1430.00  -1.11587332   0.68541646
1431.00  -1.12276216   0.68683779
1432.00  -1.12965547   0.68826104
1433.00  -1.13655324   0.68968623
1434.00  -1.14345546   0.69111334
1435.00  -1.15036215   0.69254238
1436.00  -1.15727330   0.69397336
1437.00  -1.16418891   0.69540627
1438.00  -1.17110897   0.69684111
1439.00  -1.17803349   0.69827789
1440.00  -1.18496247   0.69971660
1441.00  -1.19189590   0.70115725
1442.00  -1.19883378   0.70259984
1443.00  -1.20577613   0.70404438
1444.00  -1.21272292   0.70549085
1445.00  -1.21967417   0.70693926
1446.00  -1.22662987   0.70838962
1447.00  -1.23359002   0.70984193
1448.00  -1.24055462   0.71129618
1449.00  -1.24752367   0.71275237
1450.00  -1.25449717   0.71421052
1451.00  -1.26147512   0.71567061
1452.00  -1.26845751   0.71713266
1453.00  -1.27544435   0.71859666
1454.00  -1.28243564   0.72006261
1455.00  -1.28943138   0.72153051
1456.00  -1.29643156   0.72300037
1457.00  -1.30343618   0.72447219
1458.00  -1.31044524   0.72594596
1459.00  -1.31745875   0.72742170
1460.00  -1.32447670   0.72889939
1461.00  -1.33149910   0.73037904
1462.00  -1.33852593   0.73186066
1463.00  -1.34555720   0.73334424
1464.00  -1.35259291   0.73482979
1465.00  -1.35963306   0.73631730
1466.00  -1.36667765   0.73780678
1467.00  -1.37372667   0.73929823
1468.00  -1.38078013   0.74079164
1469.00  -1.38783802   0.74228703
1470.00  -1.39490035   0.74378439
1471.00  -1.40196711   0.74528372
1472.00  -1.40903831   0.74678503
1473.00  -1.41611394   0.74828831
1474.00  -1.42319400   0.74979357
1475.00  -1.43027849   0.75130081
1476.00  -1.43736741   0.75281002
1477.00  -1.44446076   0.75432121
1478.00  -1.45155854   0.75583439
1479.00  -1.45866075   0.75734955
1480.00  -1.46576738   0.75886669
1481.00  -1.47287844   0.76038582
1482.00  -1.47999393   0.76190693
1483.00  -1.48711384   0.76343003
1484.00  -1.49423818   0.76495512
1485.00  -1.50136694   0.76648219
1486.00  -1.50850012   0.76801126
1487.00  -1.51563772   0.76954232
1488.00  -1.52277975   0.77107537
1489.00  -1.52992620   0.77261042
1490.00  -1.53707706   0.77414746
1491.00  -1.54423235   0.77568649
1492.00  -1.55139205   0.77722753
1493.00  -1.55855618   0.77877056
1494.00  -1.56572471   0.78031559
1495.00  -1.57289767   0.78186263
1496.00  -1.58007504   0.78341166
1497.00  -1.58725682   0.78496270
1498.00  -1.59444302   0.78651575
1499.00  -1.60163364   0.78807079
1500.00  -1.60882866   0.78962785
1501.00  -1.61602810   0.79118691
1502.00  -1.62323194   0.79274799
1503.00  -1.63044020   0.79431107
1504.00  -1.63765287   0.79587616
1505.00  -1.64486995   0.79744327
1506.00  -1.65209143   0.79901239
1507.00  -1.65931732   0.80058353
1508.00  -1.66654762   0.80215668
1509.00  -1.67378232   0.80373185
1510.00  -1.68102143   0.80530903
1511.00  -1.68826495   0.80688824
1512.00  -1.69551286   0.80846947
1513.00  -1.70276518   0.81005272
1514.00  -1.71002191   0.81163799
1515.00  -1.71728303   0.81322528
1516.00  -1.72454855   0.81481461
1517.00  -1.73181848   0.81640595
1518.00  -1.73909280   0.81799933
1519.00  -1.74637152   0.81959473
1520.00  -1.75365464   0.82119217
1521.00  -1.76094215   0.82279163
1522.00  -1.76823407   0.82439313
1523.00  -1.77553037   0.82599666
1524.00  -1.78283108   0.82760222
1525.00  -1.79013617   0.82920982
1526.00  -1.79744566   0.83081946
1527.00  -1.80475954   0.83243113
1528.00  -1.81207781   0.83404485
1529.00  -1.81940048   0.83566060
1530.00  -1.82672753   0.83727840
1531.00  -1.83405897   0.83889823
1532.00  -1.84139480   0.84052011
1533.00  -1.84873502   0.84214404
1534.00  -1.85607963   0.84377001
1535.00  -1.86342862   0.84539803
1536.00  -1.87078200   0.84702810
1537.00  -1.87813976   0.84866022
1538.00  -1.88550191   0.85029438
1539.00  -1.89286844   0.85193060
1540.00  -1.90023935   0.85356887
1541.00  -1.90761465   0.85520920
1542.00  -1.91499432   0.85685158
1543.00  -1.92237838   0.85849602
1544.00  -1.92976681   0.86014251
1545.00  -1.93715963   0.86179107
1546.00  -1.94455682   0.86344168
1547.00  -1.95195839   0.86509435
1548.00  -1.95936434   0.86674909
1549.00  -1.96677466   0.86840589
1550.00  -1.97418935   0.87006475
1551.00  -1.98160842   0.87172568
1552.00  -1.98903187   0.87338867
1553.00  -1.99645969   0.87505374
1554.00  -2.00389187   0.87672087
1555.00  -2.01132843   0.87839007
1556.00  -2.01876936   0.88006134
1557.00  -2.02621466   0.88173469
1558.00  -2.03366433   0.88341010
1559.00  -2.04111837   0.88508760
1560.00  -2.04857677   0.88676716
1561.00  -2.05603954   0.88844881
1562.00  -2.06350668   0.89013253
1563.00  -2.07097818   0.89181833
1564.00  -2.07845405   0.89350622
1565.00  -2.08593428   0.89519618
1566.00  -2.09341887   0.89688823
1567.00  -2.10090782   0.89858235
1568.00  -2.10840114   0.90027857
1569.00  -2.11589881   0.90197687
1570.00  -2.12340085   0.90367726
1571.00  -2.13090724   0.90537973
1572.00  -2.13841800   0.90708430
1573.00  -2.14593310   0.90879095
1574.00  -2.15345257   0.91049970
1575.00  -2.16097639   0.91221054
1576.00  -2.16850457   0.91392347
1577.00  -2.17603710   0.91563850
1578.00  -2.18357399   0.91735562
1579.00  -2.19111522   0.91907484
1580.00  -2.19866081   0.92079616
1581.00  -2.20621075   0.92251958
1582.00  -2.21376504   0.92424510
1583.00  -2.22132369   0.92597272
1584.00  -2.22888668   0.92770245
1585.00  -2.23645401   0.92943428
1586.00  -2.24402570   0.93116821
1587.00  -2.25160173   0.93290425
1588.00  -2.25918211   0.93464240
1589.00  -2.26676683   0.93638265
1590.00  -2.27435590   0.93812502
1591.00  -2.28194931   0.93986949
1592.00  -2.28954706   0.94161608
1593.00  -2.29714915   0.94336478
1594.00  -2.30475559   0.94511560
1595.00  -2.31236636   0.94686853
1596.00  -2.31998148   0.94862357
1597.00  -2.32760093   0.95038074
1598.00  -2.33522473   0.95214002
1599.00  -2.34285286   0.95390142
1600.00  -2.35048532   0.95566495
1601.00  -2.35812212   0.95743059
1602.00  -2.36576326   0.95919836
1603.00  -2.37340873   0.96096825
1604.00  -2.38105853   0.96274027
1605.00  -2.38871267   0.96451442
1606.00  -2.39637114   0.96629069
1607.00  -2.40403394   0.96806909
1608.00  -2.41170107   0.96984962
1609.00  -2.41937253   0.97163228
1610.00  -2.42704831   0.97341708
1611.00  -2.43472843   0.97520400
1612.00  -2.44241287   0.97699307
1613.00  -2.45010164   0.97878426
1614.00  -2.45779473   0.98057760
1615.00  -2.46549215   0.98237307
1616.00  -2.47319389   0.98417068
1617.00  -2.48089996   0.98597043
1618.00  -2.48861035   0.98777232
1619.00  -2.49632506   0.98957635
1620.00  -2.50404409   0.99138253
1621.00  -2.51176744   0.99319085
1622.00  -2.51949511   0.99500132
1623.00  -2.52722709   0.99681393
1624.00  -2.53496340   0.99862869
1625.00  -2.54270402   1.00044560
1626.00  -2.55044896   1.00226466
1627.00  -2.55819821   1.00408587
1628.00  -2.56595178   1.00590924
1629.00  -2.57370966   1.00773475
1630.00  -2.58147186   1.00956242
1631.00  -2.58923837   1.01139225
1632.00  -2.59700918   1.01322423
1633.00  -2.60478431   1.01505838
1634.00  -2.61256375   1.01689468
1635.00  -2.62034750   1.01873314
1636.00  -2.62813555   1.02057376
1637.00  -2.63592792   1.02241654
1638.00  -2.64372458   1.02426149
1639.00  -2.65152556   1.02610860
1640.00  -2.65933084   1.02795788
1641.00  -2.66714042   1.02980932
1642.00  -2.67495431   1.03166293
1643.00  -2.68277250   1.03351871
1644.00  -2.69059499   1.03537666
1645.00  -2.69842178   1.03723678
1646.00  -2.70625288   1.03909908
1647.00  -2.71408827   1.04096354
1648.00  -2.72192796   1.04283018
1649.00  -2.72977195   1.04469900
1650.00  -2.73762023   1.04656999
1651.00  -2.74547282   1.04844317
1652.00  -2.75332969   1.05031852
1653.00  -2.76119086   1.05219605
1654.00  -2.76905633   1.05407576
1655.00  -2.77692609   1.05595765
1656.00  -2.78480014   1.05784173
1657.00  -2.79267848   1.05972799
1658.00  -2.80056111   1.06161643
1659.00  -2.80844804   1.06350707
1660.00  -2.81633925   1.06539989
1661.00  -2.82423475   1.06729490
1662.00  -2.83213453   1.06919210
1663.00  -2.84003861   1.07109149
1664.00  -2.84794697   1.07299307
1665.00  -2.85585961   1.07489684
1666.00  -2.86377654   1.07680281
1667.00  -2.87169775   1.07871098
1668.00  -2.87962324   1.08062134
1669.00  -2.88755302   1.08253390
1670.00  -2.89548708   1.08444866
1671.00  -2.90342542   1.08636562
1672.00  -2.91136803   1.08828478
1673.00  -2.91931493   1.09020614
1674.00  -2.92726610   1.09212970
1675.00  -2.93522155   1.09405547
1676.00  -2.94318127   1.09598344
1677.00  -2.95114528   1.09791362
1678.00  -2.95911355   1.09984601
1679.00  -2.96708610   1.10178060
1680.00  -2.97506292   1.10371741
1681.00  -2.98304402   1.10565643
1682.00  -2.99102938   1.10759765
1683.00  -2.99901902   1.10954109
1684.00  -3.00701292   1.11148675
1685.00  -3.01501110   1.11343462
1686.00  -3.02301354   1.11538471
1687.00  -3.03102025   1.11733701
1688.00  -3.03903123   1.11929153
1689.00  -3.04704647   1.12124827
1690.00  -3.05506597   1.12320724
1691.00  -3.06308974   1.12516842
1692.00  -3.07111778   1.12713183
1693.00  -3.07915007   1.12909746
1694.00  -3.08718663   1.13106531
1695.00  -3.09522745   1.13303539
1696.00  -3.10327252   1.13500770
1697.00  -3.11132186   1.13698224
1698.00  -3.11937546   1.13895900
1699.00  -3.12743331   1.14093800
1700.00  -3.13549542   1.14291923
1701.00  -3.14356178   1.14490269
1702.00  -3.15163240   1.14688838
1703.00  -3.15970728   1.14887631
1704.00  -3.16778640   1.15086648
1705.00  -3.17586978   1.15285888
1706.00  -3.18395742   1.15485352
1707.00  -3.19204930   1.15685040
1708.00  -3.20014543   1.15884952
1709.00  -3.20824581   1.16085088
1710.00  -3.21635044   1.16285448
1711.00  -3.22445932   1.16486033
1712.00  -3.23257244   1.16686842
1713.00  -3.24068982   1.16887875
1714.00  -3.24881143   1.17089134
1715.00  -3.25693729   1.17290617
1716.00  -3.26506739   1.17492325
1717.00  -3.27320174   1.17694258
1718.00  -3.28134033   1.17896416
1719.00  -3.28948316   1.18098799
1720.00  -3.29763023   1.18301408
1721.00  -3.30578154   1.18504242
1722.00  -3.31393708   1.18707301
1723.00  -3.32209687   1.18910586
1724.00  -3.33026089   1.19114097
1725.00  -3.33842915   1.19317834
1726.00  -3.34660164   1.19521797
1727.00  -3.35477837   1.19725986
1728.00  -3.36295933   1.19930401
1729.00  -3.37114453   1.20135042
1730.00  -3.37933395   1.20339910
1731.00  -3.38752761   1.20545004
1732.00  -3.39572550   1.20750325
1733.00  -3.40392762   1.20955872
1734.00  -3.41213396   1.21161646
1735.00  -3.42034453   1.21367648
1736.00  -3.42855934   1.21573876
1737.00  -3.43677836   1.21780331
1738.00  -3.44500161   1.21987014
1739.00  -3.45322909   1.22193924
1740.00  -3.46146079   1.22401062
1741.00  -3.46969671   1.22608427
1742.00  -3.47793686   1.22816020
1743.00  -3.48618123   1.23023840
1744.00  -3.49442981   1.23231889
1745.00  -3.50268262   1.23440165
1746.00  -3.51093964   1.23648670
1747.00  -3.51920089   1.23857403
1748.00  -3.52746635   1.24066364
1749.00  -3.53573602   1.24275554
1750.00  -3.54400991   1.24484972
1751.00  -3.55228802   1.24694619
1752.00  -3.56057034   1.24904494
1753.00  -3.56885687   1.25114599
1754.00  -3.57714762   1.25324932
1755.00  -3.58544257   1.25535494
1756.00  -3.59374174   1.25746286
1757.00  -3.60204511   1.25957307
1758.00  -3.61035270   1.26168557
1759.00  -3.61866449   1.26380037
1760.00  -3.62698049   1.26591747
1761.00  -3.63530070   1.26803686
1762.00  -3.64362511   1.27015855
1763.00  -3.65195372   1.27228254
1764.00  -3.66028654   1.27440883
1765.00  -3.66862356   1.27653742
1766.00  -3.67696479   1.27866831
1767.00  -3.68531021   1.28080151
1768.00  -3.69365983   1.28293701
1769.00  -3.70201366   1.28507482
1770.00  -3.71037168   1.28721493
1771.00  -3.71873390   1.28935735
1772.00  -3.72710032   1.29150208
1773.00  -3.73547093   1.29364912
1774.00  -3.74384574   1.29579847
1775.00  -3.75222475   1.29795014
1776.00  -3.76060794   1.30010411
1777.00  -3.76899533   1.30226040
1778.00  -3.77738692   1.30441901
1779.00  -3.78578269   1.30657993
1780.00  -3.79418265   1.30874317
1781.00  -3.80258680   1.31090873
1782.00  -3.81099514   1.31307660
1783.00  -3.81940767   1.31524680
1784.00  -3.82782439   1.31741932
1785.00  -3.83624529   1.31959416
1786.00  -3.84467038   1.32177133
1787.00  -3.85309965   1.32395082
1788.00  -3.86153310   1.32613263
1789.00  -3.86997074   1.32831678
1790.00  -3.87841255   1.33050325
1791.00  -3.88685855   1.33269205
1792.00  -3.89530873   1.33488318
1793.00  -3.90376309   1.33707664
1794.00  -3.91222163   1.33927243
1795.00  -3.92068434   1.34147055
1796.00  -3.92915123   1.34367101
1797.00  -3.93762230   1.34587381
1798.00  -3.94609754   1.34807894
1799.00  -3.95457696   1.35028641
1800.00  -3.96306055   1.35249622
1801.00  -3.97154831   1.35470836
1802.00  -3.98004024   1.35692285
1803.00  -3.98853634   1.35913968
1804.00  -3.99703662   1.36135885
1805.00  -4.00554106   1.36358036
1806.00  -4.01404967   1.36580422
1807.00  -4.02256245   1.36803043
1808.00  -4.03107939   1.37025898
1809.00  -4.03960050   1.37248988
1810.00  -4.04812578   1.37472313
1811.00  -4.05665521   1.37695873
1812.00  -4.06518882   1.37919668
1813.00  -4.07372658   1.38143698
1814.00  -4.08226850   1.38367963
1815.00  -4.09081459   1.38592464
1816.00  -4.09936483   1.38817201
1817.00  -4.10791924   1.39042173
1818.00  -4.11647780   1.39267380
1819.00  -4.12504052   1.39492824
1820.00  -4.13360739   1.39718504
1821.00  -4.14217842   1.39944419
1822.00  -4.15075360   1.40170571
1823.00  -4.15933294   1.40396959
1824.00  -4.16791643   1.40623583
1825.00  -4.17650408   1.40850444
1826.00  -4.18509587   1.41077541
1827.00  -4.19369181   1.41304875
1828.00  -4.20229191   1.41532446
1829.00  -4.21089615   1.41760253
1830.00  -4.21950454   1.41988298
1831.00  -4.22811707   1.42216579
1832.00  -4.23673375   1.42445098
1833.00  -4.24535458   1.42673854
1834.00  -4.25397955   1.42902848
1835.00  -4.26260866   1.43132079
1836.00  -4.27124192   1.43361547
1837.00  -4.27987932   1.43591253
1838.00  -4.28852086   1.43821197
1839.00  -4.29716653   1.44051379
1840.00  -4.30581635   1.44281799
1841.00  -4.31447031   1.44512457
1842.00  -4.32312840   1.44743354
1843.00  -4.33179063   1.44974488
1844.00  -4.34045699   1.45205861
1845.00  -4.34912749   1.45437473
1846.00  -4.35780212   1.45669323
1847.00  -4.36648089   1.45901412
1848.00  -4.37516378   1.46133740
1849.00  -4.38385081   1.46366307
1850.00  -4.39254197   1.46599112
1851.00  -4.40123726   1.46832157
1852.00  -4.40993668   1.47065441
1853.00  -4.41864022   1.47298965
1854.00  -4.42734789   1.47532728
1855.00  -4.43605969   1.47766730
1856.00  -4.44477561   1.48000972
1857.00  -4.45349566   1.48235454
1858.00  -4.46221983   1.48470176
1859.00  -4.47094812   1.48705138
1860.00  -4.47968053   1.48940340
1861.00  -4.48841707   1.49175782
1862.00  -4.49715772   1.49411464
1863.00  -4.50590250   1.49647387
1864.00  -4.51465139   1.49883550
1865.00  -4.52340440   1.50119953
1866.00  -4.53216152   1.50356598
1867.00  -4.54092276   1.50593483
1868.00  -4.54968812   1.50830609
1869.00  -4.55845759   1.51067976
1870.00  -4.56723117   1.51305584
1871.00  -4.57600886   1.51543434
1872.00  -4.58479067   1.51781524
1873.00  -4.59357658   1.52019856
1874.00  -4.60236661   1.52258430
1875.00  -4.61116074   1.52497245
1876.00  -4.61995898   1.52736302
1877.00  -4.62876133   1.52975601
1878.00  -4.63756778   1.53215141
1879.00  -4.64637834   1.53454924
1880.00  -4.65519300   1.53694949
1881.00  -4.66401177   1.53935216
1882.00  -4.67283463   1.54175725
1883.00  -4.68166160   1.54416477
1884.00  -4.69049267   1.54657471
1885.00  -4.69932784   1.54898708
1886.00  -4.70816711   1.55140187
1887.00  -4.71701048   1.55381910
1888.00  -4.72585794   1.55623875
1889.00  -4.73470950   1.55866084
1890.00  -4.74356516   1.56108535
1891.00  -4.75242491   1.56351230
1892.00  -4.76128875   1.56594168
1893.00  -4.77015669   1.56837349
1894.00  -4.77902871   1.57080774
1895.00  -4.78790483   1.57324443
1896.00  -4.79678504   1.57568356
1897.00  -4.80566934   1.57812512
1898.00  -4.81455772   1.58056912
1899.00  -4.82345020   1.58301556
1900.00  -4.83234676   1.58546445
1901.00  -4.84124740   1.58791577
1902.00  -4.85015213   1.59036954
1903.00  -4.85906095   1.59282576
1904.00  -4.86797384   1.59528442
1905.00  -4.87689082   1.59774553
1906.00  -4.88581188   1.60020908
1907.00  -4.89473703   1.60267508
1908.00  -4.90366625   1.60514353
1909.00  -4.91259954   1.60761444
1910.00  -4.92153692   1.61008779
1911.00  -4.93047837   1.61256360
1912.00  -4.93942390   1.61504186
1913.00  -4.94837351   1.61752257
1914.00  -4.95732718   1.62000575
1915.00  -4.96628494   1.62249137
1916.00  -4.97524676   1.62497946
1917.00  -4.98421265   1.62747000
1918.00  -4.99318262   1.62996300
1919.00  -5.00215666   1.63245847
1920.00  -5.01113476   1.63495639
1921.00  -5.02011693   1.63745678
1922.00  -5.02910317   1.63995963
1923.00  -5.03809348   1.64246495
1924.00  -5.04708785   1.64497273
1925.00  -5.05608628   1.64748298
1926.00  -5.06508878   1.64999570
1927.00  -5.07409534   1.65251088
1928.00  -5.08310596   1.65502853
1929.00  -5.09212064   1.65754866
1930.00  -5.10113939   1.66007126
1931.00  -5.11016219   1.66259633
1932.00  -5.11918905   1.66512387
1933.00  -5.12821997   1.66765389
1934.00  -5.13725494   1.67018638
1935.00  -5.14629397   1.67272135
1936.00  -5.15533705   1.67525880
1937.00  -5.16438419   1.67779872
1938.00  -5.17343538   1.68034113
1939.00  -5.18249062   1.68288601
1940.00  -5.19154991   1.68543338
1941.00  -5.20061325   1.68798323
1942.00  -5.20968065   1.69053556
1943.00  -5.21875208   1.69309038
1944.00  -5.22782757   1.69564769
1945.00  -5.23690711   1.69820748
1946.00  -5.24599068   1.70076976
1947.00  -5.25507831   1.70333452
1948.00  -5.26416998   1.70590178
1949.00  -5.27326569   1.70847153
1950.00  -5.28236544   1.71104376
1951.00  -5.29146923   1.71361850
1952.00  -5.30057706   1.71619572
1953.00  -5.30968894   1.71877544
1954.00  -5.31880485   1.72135765
1955.00  -5.32792480   1.72394236
1956.00  -5.33704878   1.72652957
1957.00  -5.34617680   1.72911928
1958.00  -5.35530886   1.73171149
1959.00  -5.36444495   1.73430619
1960.00  -5.37358507   1.73690340
1961.00  -5.38272922   1.73950311
1962.00  -5.39187741   1.74210532
1963.00  -5.40102962   1.74471004
1964.00  -5.41018587   1.74731727
1965.00  -5.41934614   1.74992700
1966.00  -5.42851044   1.75253923
1967.00  -5.43767877   1.75515398
1968.00  -5.44685112   1.75777124
1969.00  -5.45602750   1.76039100
1970.00  -5.46520790   1.76301328
1971.00  -5.47439233   1.76563807
1972.00  -5.48358078   1.76826537
1973.00  -5.49277324   1.77089518
1974.00  -5.50196973   1.77352752
1975.00  -5.51117024   1.77616236
1976.00  -5.52037477   1.77879973
1977.00  -5.52958331   1.78143961
1978.00  -5.53879587   1.78408201
1979.00  -5.54801245   1.78672694
1980.00  -5.55723304   1.78937438
1981.00  -5.56645764   1.79202435
1982.00  -5.57568626   1.79467683
1983.00  -5.58491889   1.79733185
1984.00  -5.59415553   1.79998938
1985.00  -5.60339619   1.80264945
1986.00  -5.61264085   1.80531204
1987.00  -5.62188952   1.80797716
1988.00  -5.63114219   1.81064480
1989.00  -5.64039888   1.81331498
1990.00  -5.64965957   1.81598769
1991.00  -5.65892426   1.81866293
1992.00  -5.66819296   1.82134070
1993.00  -5.67746566   1.82402101
1994.00  -5.68674236   1.82670385
1995.00  -5.69602307   1.82938923
1996.00  -5.70530777   1.83207714
1997.00  -5.71459648   1.83476759
1998.00  -5.72388918   1.83746058
1999.00  -5.73318588   1.84015611
2000.00  -5.74248658   1.84285418
