wavelength(nm)         real         imag
200.00   3.72080631   0.00342472
201.00   3.71901056   0.00347633
202.00   3.71720586   0.00352846
203.00   3.71539222   0.00358111
204.00   3.71356964   0.00363428
205.00   3.71173811   0.00368798
206.00   3.70989764   0.00374220
207.00   3.70804823   0.00379695
208.00   3.70618988   0.00385223
209.00   3.70432259   0.00390804
210.00   3.70244635   0.00396439
211.00   3.70056118   0.00402128
212.00   3.69866706   0.00407871
213.00   3.69676400   0.00413668
214.00   3.69485200   0.00419520
215.00   3.69293106   0.00425427
216.00   3.69100118   0.00431389
217.00   3.68906236   0.00437407
218.00   3.68711460   0.00443480
219.00   3.68515790   0.00449609
220.00   3.68319226   0.00455795
221.00   3.68121768   0.00462037
222.00   3.67923417   0.00468335
223.00   3.67724171   0.00474691
224.00   3.67524032   0.00481103
225.00   3.67322998   0.00487573
226.00   3.67121071   0.00494101
227.00   3.66918250   0.00500687
228.00   3.66714536   0.00507331
229.00   3.66509927   0.00514034
230.00   3.66304425   0.00520795
231.00   3.66098029   0.00527616
232.00   3.65890740   0.00534495
233.00   3.65682557   0.00541434
234.00   3.65473480   0.00548433
235.00   3.65263509   0.00555492
236.00   3.65052645   0.00562611
237.00   3.64840888   0.00569791
238.00   3.64628237   0.00577032
239.00   3.64414692   0.00584333
240.00   3.64200254   0.00591696
241.00   3.63984922   0.00599120
242.00   3.63768697   0.00606607
243.00   3.63551579   0.00614155
244.00   3.63333567   0.00621766
245.00   3.63114662   0.00629439
246.00   3.62894863   0.00637175
247.00   3.62674171   0.00644974
248.00   3.62452586   0.00652837
249.00   3.62230108   0.00660763
250.00   3.62006736   0.00668753
251.00   3.61782471   0.00676807
252.00   3.61557313   0.00684925
253.00   3.61331261   0.00693108
254.00   3.61104317   0.00701356
255.00   3.60876479   0.00709669
256.00   3.60647748   0.00718048
257.00   3.60418124   0.00726492
258.00   3.60187608   0.00735002
259.00   3.59956198   0.00743578
260.00   3.59723895   0.00752221
261.00   3.59490699   0.00760930
262.00   3.59256610   0.00769706
263.00   3.59021628   0.00778550
264.00   3.58785753   0.00787460
265.00   3.58548986   0.00796439
266.00   3.58311325   0.00805485
267.00   3.58072772   0.00814600
268.00   3.57833326   0.00823783
269.00   3.57592987   0.00833035
270.00   3.57351755   0.00842356
271.00   3.57109631   0.00851746
272.00   3.56866614   0.00861205
273.00   3.56622704   0.00870734
274.00   3.56377902   0.00880334
275.00   3.56132207   0.00890003
276.00   3.55885620   0.00899743
277.00   3.55638140   0.00909554
278.00   3.55389767   0.00919435
279.00   3.55140502   0.00929388
280.00   3.54890344   0.00939413
281.00   3.54639294   0.00949509
282.00   3.54387352   0.00959678
283.00   3.54134517   0.00969918
284.00   3.53880789   0.00980231
285.00   3.53626170   0.00990617
286.00   3.53370658   0.01001076
287.00   3.53114254   0.01011608
288.00   3.52856957   0.01022214
289.00   3.52598769   0.01032894
290.00   3.52339688   0.01043648
291.00   3.52079715   0.01054476
292.00   3.51818849   0.01065378
293.00   3.51557092   0.01076356
294.00   3.51294443   0.01087408
295.00   3.51030901   0.01098536
296.00   3.50766468   0.01109740
297.00   3.50501142   0.01121019
298.00   3.50234925   0.01132374
299.00   3.49967815   0.01143806
300.00   3.49699814   0.01155315
301.00   3.49430921   0.01166900
302.00   3.49161136   0.01178562
303.00   3.48890459   0.01190302
304.00   3.48618890   0.01202120
305.00   3.48346430   0.01214015
306.00   3.48073077   0.01225988
307.00   3.47798833   0.01238040
308.00   3.47523698   0.01250171
309.00   3.47247671   0.01262380
310.00   3.46970752   0.01274669
311.00   3.46692941   0.01287037
312.00   3.46414239   0.01299485
313.00   3.46134646   0.01312012
314.00   3.45854161   0.01324620
315.00   3.45572784   0.01337308
316.00   3.45290516   0.01350077
317.00   3.45007357   0.01362927
318.00   3.44723306   0.01375858
319.00   3.44438364   0.01388871
320.00   3.44152531   0.01401965
321.00   3.43865806   0.01415142
322.00   3.43578190   0.01428400
323.00   3.43289683   0.01441741
324.00   3.43000285   0.01455165
325.00   3.42709996   0.01468671
326.00   3.42418815   0.01482261
327.00   3.42126743   0.01495935
328.00   3.41833781   0.01509692
329.00   3.41539927   0.01523533
330.00   3.41245182   0.01537459
331.00   3.40949547   0.01551468
332.00   3.40653020   0.01565563
333.00   3.40355603   0.01579743
334.00   3.40057294   0.01594008
335.00   3.39758095   0.01608358
336.00   3.39458005   0.01622795
337.00   3.39157024   0.01637317
338.00   3.38855153   0.01651926
339.00   3.38552391   0.01666621
340.00   3.38248738   0.01681403
341.00   3.37944194   0.01696272
342.00   3.37638760   0.01711228
343.00   3.37332435   0.01726272
344.00   3.37025220   0.01741404
345.00   3.36717115   0.01756624
346.00   3.36408118   0.01771932
347.00   3.36098232   0.01787329
348.00   3.35787455   0.01802814
349.00   3.35475787   0.01818389
350.00   3.35163230   0.01834053
351.00   3.34849782   0.01849806
352.00   3.34535444   0.01865650
353.00   3.34220215   0.01881583
354.00   3.33904096   0.01897607
355.00   3.33587088   0.01913722
356.00   3.33269189   0.01929927
357.00   3.32950400   0.01946224
358.00   3.32630720   0.01962612
359.00   3.32310151   0.01979091
360.00   3.31988692   0.01995662
361.00   3.31666343   0.02012326
362.00   3.31343104   0.02029082
363.00   3.31018975   0.02045930
364.00   3.30693957   0.02062872
365.00   3.30368048   0.02079907
366.00   3.30041250   0.02097035
367.00   3.29713562   0.02114256
368.00   3.29384984   0.02131572
369.00   3.29055517   0.02148982
370.00   3.28725160   0.02166486
371.00   3.28393913   0.02184085
372.00   3.28061777   0.02201778
373.00   3.27728751   0.02219567
374.00   3.27394836   0.02237452
375.00   3.27060031   0.02255432
376.00   3.26724337   0.02273508
377.00   3.26387754   0.02291680
378.00   3.26050281   0.02309949
379.00   3.25711919   0.02328314
380.00   3.25372668   0.02346777
381.00   3.25032527   0.02365336
382.00   3.24691498   0.02383993
383.00   3.24349579   0.02402748
384.00   3.24006771   0.02421601
385.00   3.23663074   0.02440552
386.00   3.23318488   0.02459601
387.00   3.22973012   0.02478749
388.00   3.22626648   0.02497996
389.00   3.22279395   0.02517343
390.00   3.21931253   0.02536789
391.00   3.21582223   0.02556334
392.00   3.21232303   0.02575980
393.00   3.20881495   0.02595726
394.00   3.20529798   0.02615572
395.00   3.20177212   0.02635519
396.00   3.19823737   0.02655568
397.00   3.19469374   0.02675717
398.00   3.19114123   0.02695968
399.00   3.18757983   0.02716321
400.00   3.18400954   0.02736775
401.00   3.18043037   0.02757332
402.00   3.17684231   0.02777992
403.00   3.17324537   0.02798754
404.00   3.16963955   0.02819620
405.00   3.16602484   0.02840588
406.00   3.16240125   0.02861661
407.00   3.15876878   0.02882837
408.00   3.15512743   0.02904117
409.00   3.15147719   0.02925501
410.00   3.14781808   0.02946990
411.00   3.14415008   0.02968584
412.00   3.14047320   0.02990283
413.00   3.13678744   0.03012087
414.00   3.13309281   0.03033997
415.00   3.12938929   0.03056012
416.00   3.12567690   0.03078134
417.00   3.12195562   0.03100362
418.00   3.11822547   0.03122696
419.00   3.11448645   0.03145138
420.00   3.11073854   0.03167686
421.00   3.10698176   0.03190342
422.00   3.10321610   0.03213105
423.00   3.09944157   0.03235976
424.00   3.09565816   0.03258956
425.00   3.09186587   0.03282043
426.00   3.08806471   0.03305240
427.00   3.08425468   0.03328545
428.00   3.08043577   0.03351959
429.00   3.07660799   0.03375483
430.00   3.07277134   0.03399116
431.00   3.06892581   0.03422859
432.00   3.06507142   0.03446712
433.00   3.06120815   0.03470676
434.00   3.05733600   0.03494750
435.00   3.05345499   0.03518935
436.00   3.04956511   0.03543231
437.00   3.04566636   0.03567639
438.00   3.04175874   0.03592158
439.00   3.03784224   0.03616789
440.00   3.03391688   0.03641532
441.00   3.02998266   0.03666388
442.00   3.02603956   0.03691356
443.00   3.02208760   0.03716438
444.00   3.01812677   0.03741632
445.00   3.01415707   0.03766940
446.00   3.01017851   0.03792361
447.00   3.00619108   0.03817896
448.00   3.00219478   0.03843546
449.00   2.99818962   0.03869310
450.00   2.99417560   0.03895188
451.00   2.99015271   0.03921182
452.00   2.98612096   0.03947290
453.00   2.98208035   0.03973515
454.00   2.97803087   0.03999854
455.00   2.97397253   0.04026310
456.00   2.96990533   0.04052882
457.00   2.96582927   0.04079570
458.00   2.96174435   0.04106375
459.00   2.95765056   0.04133297
460.00   2.95354792   0.04160336
461.00   2.94943642   0.04187492
462.00   2.94531605   0.04214767
463.00   2.94118683   0.04242159
464.00   2.93704876   0.04269669
465.00   2.93290182   0.04297298
466.00   2.92874602   0.04325045
467.00   2.92458137   0.04352912
468.00   2.92040787   0.04380897
469.00   2.91622550   0.04409002
470.00   2.91203429   0.04437227
471.00   2.90783421   0.04465572
472.00   2.90362528   0.04494037
473.00   2.89940750   0.04522622
474.00   2.89518087   0.04551328
475.00   2.89094538   0.04580155
476.00   2.88670103   0.04609104
477.00   2.88244784   0.04638174
478.00   2.87818579   0.04667365
479.00   2.87391490   0.04696678
480.00   2.86963515   0.04726114
481.00   2.86534655   0.04755672
482.00   2.86104910   0.04785353
483.00   2.85674280   0.04815157
484.00   2.85242766   0.04845084
485.00   2.84810366   0.04875135
486.00   2.84377082   0.04905309
487.00   2.83942913   0.04935607
488.00   2.83507859   0.04966030
489.00   2.83071920   0.04996577
490.00   2.82635097   0.05027248
491.00   2.82197390   0.05058045
492.00   2.81758797   0.05088967
493.00   2.81319321   0.05120015
494.00   2.80878960   0.05151188
495.00   2.80437714   0.05182487
496.00   2.79995584   0.05213912
497.00   2.79552570   0.05245464
498.00   2.79108672   0.05277143
499.00   2.78663889   0.05308949
500.00   2.78218223   0.05340882
501.00   2.77771672   0.05372942
502.00   2.77324237   0.05405130
503.00   2.76875919   0.05437446
504.00   2.76426716   0.05469891
505.00   2.75976629   0.05502464
506.00   2.75525659   0.05535165
507.00   2.75073805   0.05567996
508.00   2.74621067   0.05600956
509.00   2.74167445   0.05634046
510.00   2.73712940   0.05667265
511.00   2.73257551   0.05700614
512.00   2.72801278   0.05734093
513.00   2.72344122   0.05767704
514.00   2.71886083   0.05801444
515.00   2.71427160   0.05835316
516.00   2.70967354   0.05869319
517.00   2.70506664   0.05903454
518.00   2.70045092   0.05937720
519.00   2.69582636   0.05972118
520.00   2.69119297   0.06006649
521.00   2.68655074   0.06041312
522.00   2.68189969   0.06076108
523.00   2.67723981   0.06111037
524.00   2.67257110   0.06146099
525.00   2.66789356   0.06181295
526.00   2.66320719   0.06216624
527.00   2.65851199   0.06252088
528.00   2.65380797   0.06287686
529.00   2.64909512   0.06323418
530.00   2.64437344   0.06359285
531.00   2.63964293   0.06395287
532.00   2.63490361   0.06431425
533.00   2.63015545   0.06467698
534.00   2.62539847   0.06504106
535.00   2.62063267   0.06540651
536.00   2.61585805   0.06577332
537.00   2.61107460   0.06614149
538.00   2.60628233   0.06651104
539.00   2.60148123   0.06688195
540.00   2.59667132   0.06725424
541.00   2.59185259   0.06762790
542.00   2.58702503   0.06800294
543.00   2.58218866   0.06837936
544.00   2.57734347   0.06875716
545.00   2.57248945   0.06913634
546.00   2.56762662   0.06951692
547.00   2.56275498   0.06989889
548.00   2.55787451   0.07028224
549.00   2.55298523   0.07066700
550.00   2.54808713   0.07105315
551.00   2.54318022   0.07144070
552.00   2.53826450   0.07182965
553.00   2.53333995   0.07222001
554.00   2.52840660   0.07261178
555.00   2.52346443   0.07300496
556.00   2.51851345   0.07339955
557.00   2.51355365   0.07379555
558.00   2.50858505   0.07419298
559.00   2.50360763   0.07459182
560.00   2.49862141   0.07499209
561.00   2.49362637   0.07539378
562.00   2.48862252   0.07579690
563.00   2.48360987   0.07620145
564.00   2.47858840   0.07660743
565.00   2.47355813   0.07701485
566.00   2.46851905   0.07742370
567.00   2.46347117   0.07783400
568.00   2.45841447   0.07824574
569.00   2.45334898   0.07865892
570.00   2.44827467   0.07907355
571.00   2.44319157   0.07948963
572.00   2.43809965   0.07990717
573.00   2.43299894   0.08032616
574.00   2.42788942   0.08074660
575.00   2.42277110   0.08116851
576.00   2.41764398   0.08159188
577.00   2.41250805   0.08201671
578.00   2.40736333   0.08244302
579.00   2.40220981   0.08287079
580.00   2.39704748   0.08330004
581.00   2.39187636   0.08373076
582.00   2.38669644   0.08416295
583.00   2.38150772   0.08459663
584.00   2.37631020   0.08503179
585.00   2.37110389   0.08546844
586.00   2.36588878   0.08590657
587.00   2.36066487   0.08634620
588.00   2.35543217   0.08678731
589.00   2.35019068   0.08722992
590.00   2.34494039   0.08767403
591.00   2.33968131   0.08811964
592.00   2.33441343   0.08856675
593.00   2.32913677   0.08901537
594.00   2.32385131   0.08946549
595.00   2.31855706   0.08991713
596.00   2.31325402   0.09037027
597.00   2.30794219   0.09082494
598.00   2.30262157   0.09128111
599.00   2.29729216   0.09173881
600.00   2.29195396   0.09219803
601.00   2.28660698   0.09265878
602.00   2.28125121   0.09312105
603.00   2.27588665   0.09358486
604.00   2.27051331   0.09405019
605.00   2.26513118   0.09451706
606.00   2.25974026   0.09498547
607.00   2.25434057   0.09545542
608.00   2.24893208   0.09592691
609.00   2.24351482   0.09639994
610.00   2.23808877   0.09687453
611.00   2.23265395   0.09735066
612.00   2.22721034   0.09782834
613.00   2.22175795   0.09830758
614.00   2.21629678   0.09878838
615.00   2.21082683   0.09927073
616.00   2.20534810   0.09975465
617.00   2.19986059   0.10024013
618.00   2.19436431   0.10072718
619.00   2.18885925   0.10121580
620.00   2.18334541   0.10170599
621.00   2.17782280   0.10219776
622.00   2.17229141   0.10269110
623.00   2.16675124   0.10318602
624.00   2.16120231   0.10368253
625.00   2.15564460   0.10418062
626.00   2.15007811   0.10468029
627.00   2.14450286   0.10518156
628.00   2.13891883   0.10568442
629.00   2.13332603   0.10618887
630.00   2.12772446   0.10669492
631.00   2.12211412   0.10720256
632.00   2.11649502   0.10771181
633.00   2.11086714   0.10822267
634.00   2.10523049   0.10873513
635.00   2.09958508   0.10924920
636.00   2.09393090   0.10976488
637.00   2.08826796   0.11028218
638.00   2.08259625   0.11080109
639.00   2.07691577   0.11132162
640.00   2.07122653   0.11184378
641.00   2.06552853   0.11236755
642.00   2.05982177   0.11289296
643.00   2.05410624   0.11341999
644.00   2.04838195   0.11394866
645.00   2.04264889   0.11447896
646.00   2.03690708   0.11501089
647.00   2.03115651   0.11554447
648.00   2.02539718   0.11607968
649.00   2.01962909   0.11661654
650.00   2.01385224   0.11715505
651.00   2.00806663   0.11769520
652.00   2.00227227   0.11823701
653.00   1.99646915   0.11878047
654.00   1.99065728   0.11932558
655.00   1.98483665   0.11987236
656.00   1.97900727   0.12042080
657.00   1.97316913   0.12097090
658.00   1.96732224   0.12152266
659.00   1.96146659   0.12207610
660.00   1.95560220   0.12263120
661.00   1.94972905   0.12318798
662.00   1.94384716   0.12374644
663.00   1.93795651   0.12430657
664.00   1.93205712   0.12486839
665.00   1.92614897   0.12543189
666.00   1.92023208   0.12599707
667.00   1.91430644   0.12656394
668.00   1.90837205   0.12713251
669.00   1.90242892   0.12770276
670.00   1.89647704   0.12827472
671.00   1.89051642   0.12884837
672.00   1.88454706   0.12942372
673.00   1.87856895   0.13000077
674.00   1.87258209   0.13057953
675.00   1.86658650   0.13116000
676.00   1.86058216   0.13174218
677.00   1.85456909   0.13232607
678.00   1.84854727   0.13291168
679.00   1.84251671   0.13349900
680.00   1.83647741   0.13408805
681.00   1.83042938   0.13467882
682.00   1.82437261   0.13527131
683.00   1.81830710   0.13586553
684.00   1.81223286   0.13646149
685.00   1.80614987   0.13705917
686.00   1.80005816   0.13765859
687.00   1.79395771   0.13825975
688.00   1.78784853   0.13886264
689.00   1.78173061   0.13946728
690.00   1.77560396   0.14007367
691.00   1.76946858   0.14068180
692.00   1.76332447   0.14129169
693.00   1.75717163   0.14190332
694.00   1.75101005   0.14251671
695.00   1.74483975   0.14313186
696.00   1.73866072   0.14374876
697.00   1.73247297   0.14436743
698.00   1.72627648   0.14498787
699.00   1.72007127   0.14561007
700.00   1.71385734   0.14623404
701.00   1.70763468   0.14685978
702.00   1.70140329   0.14748730
703.00   1.69516318   0.14811659
704.00   1.68891435   0.14874767
705.00   1.68265680   0.14938052
706.00   1.67639052   0.15001516
707.00   1.67011552   0.15065159
708.00   1.66383181   0.15128980
709.00   1.65753937   0.15192981
710.00   1.65123822   0.15257161
711.00   1.64492834   0.15321521
712.00   1.63860975   0.15386061
713.00   1.63228244   0.15450781
714.00   1.62594642   0.15515681
715.00   1.61960168   0.15580762
716.00   1.61324822   0.15646024
717.00   1.60688606   0.15711467
718.00   1.60051517   0.15777091
719.00   1.59413558   0.15842897
720.00   1.58774727   0.15908885
721.00   1.58135025   0.15975054
722.00   1.57494452   0.16041407
723.00   1.56853009   0.16107942
724.00   1.56210694   0.16174659
725.00   1.55567508   0.16241560
726.00   1.54923452   0.16308644
727.00   1.54278524   0.16375912
728.00   1.53632726   0.16443364
729.00   1.52986058   0.16510999
730.00   1.52338519   0.16578819
731.00   1.51690110   0.16646824
732.00   1.51040830   0.16715013
733.00   1.50390680   0.16783387
734.00   1.49739660   0.16851947
735.00   1.49087769   0.16920692
736.00   1.48435009   0.16989623
737.00   1.47781378   0.17058740
738.00   1.47126878   0.17128043
739.00   1.46471507   0.17197533
740.00   1.45815267   0.17267210
741.00   1.45158157   0.17337073
742.00   1.44500177   0.17407124
743.00   1.43841328   0.17477362
744.00   1.43181609   0.17547788
745.00   1.42521021   0.17618402
746.00   1.41859564   0.17689204
747.00   1.41197237   0.17760195
748.00   1.40534041   0.17831375
749.00   1.39869975   0.17902743
750.00   1.39205041   0.17974301
751.00   1.38539238   0.18046048
752.00   1.37872565   0.18117984
753.00   1.37205024   0.18190111
754.00   1.36536614   0.18262428
755.00   1.35867335   0.18334935
756.00   1.35197188   0.18407633
757.00   1.34526172   0.18480522
758.00   1.33854287   0.18553602
759.00   1.33181534   0.18626873
760.00   1.32507913   0.18700336
761.00   1.31833423   0.18773991
762.00   1.31158065   0.18847838
763.00   1.30481839   0.18921877
764.00   1.29804745   0.18996110
765.00   1.29126783   0.19070534
766.00   1.28447953   0.19145152
767.00   1.27768255   0.19219964
768.00   1.27087689   0.19294969
769.00   1.26406256   0.19370167
770.00   1.25723955   0.19445560
771.00   1.25040786   0.19521147
772.00   1.24356750   0.19596929
773.00   1.23671846   0.19672906
774.00   1.22986075   0.19749077
775.00   1.22299437   0.19825444
776.00   1.21611932   0.19902006
777.00   1.20923559   0.19978764
778.00   1.20234320   0.20055719
779.00   1.19544213   0.20132869
780.00   1.18853239   0.20210216
781.00   1.18161399   0.20287760
782.00   1.17468692   0.20365500
783.00   1.16775118   0.20443438
784.00   1.16080678   0.20521574
785.00   1.15385371   0.20599907
786.00   1.14689198   0.20678438
787.00   1.13992158   0.20757167
788.00   1.13294252   0.20836095
789.00   1.12595480   0.20915222
790.00   1.11895841   0.20994547
791.00   1.11195337   0.21074072
792.00   1.10493966   0.21153796
793.00   1.09791730   0.21233719
794.00   1.09088628   0.21313843
795.00   1.08384660   0.21394166
796.00   1.07679826   0.21474691
797.00   1.06974127   0.21555415
798.00   1.06267562   0.21636341
799.00   1.05560131   0.21717468
800.00   1.04851835   0.21798796
801.00   1.04142674   0.21880325
802.00   1.03432648   0.21962057
803.00   1.02721756   0.22043991
804.00   1.02010000   0.22126126
805.00   1.01297378   0.22208465
806.00   1.00583892   0.22291006
807.00   0.99869540   0.22373751
808.00   0.99154324   0.22456698
809.00   0.98438243   0.22539850
810.00   0.97721297   0.22623205
811.00   0.97003487   0.22706764
812.00   0.96284813   0.22790527
813.00   0.95565274   0.22874495
814.00   0.94844870   0.22958667
815.00   0.94123603   0.23043045
816.00   0.93401471   0.23127628
817.00   0.92678475   0.23212416
818.00   0.91954615   0.23297410
819.00   0.91229892   0.23382610
820.00   0.90504304   0.23468016
821.00   0.89777853   0.23553628
822.00   0.89050538   0.23639448
823.00   0.88322359   0.23725474
824.00   0.87593317   0.23811707
825.00   0.86863411   0.23898148
826.00   0.86132642   0.23984796
827.00   0.85401009   0.24071652
828.00   0.84668514   0.24158717
829.00   0.83935155   0.24245990
830.00   0.83200933   0.24333471
831.00   0.82465848   0.24421161
832.00   0.81729901   0.24509060
833.00   0.80993090   0.24597169
834.00   0.80255417   0.24685487
835.00   0.79516881   0.24774015
836.00   0.78777482   0.24862753
837.00   0.78037221   0.24951702
838.00   0.77296097   0.25040861
839.00   0.76554111   0.25130231
840.00   0.75811263   0.25219811
841.00   0.75067553   0.25309603
842.00   0.74322980   0.25399607
843.00   0.73577546   0.25489822
844.00   0.72831249   0.25580249
845.00   0.72084091   0.25670889
846.00   0.71336071   0.25761741
847.00   0.70587189   0.25852805
848.00   0.69837445   0.25944083
849.00   0.69086840   0.26035574
850.00   0.68335373   0.26127278
851.00   0.67583046   0.26219196
852.00   0.66829856   0.26311327
853.00   0.66075806   0.26403673
854.00   0.65320894   0.26496234
855.00   0.64565121   0.26589009
856.00   0.63808488   0.26681998
857.00   0.63050993   0.26775203
858.00   0.62292638   0.26868624
859.00   0.61533421   0.26962260
860.00   0.60773345   0.27056111
861.00   0.60012407   0.27150179
862.00   0.59250609   0.27244463
863.00   0.58487951   0.27338964
864.00   0.57724432   0.27433681
865.00   0.56960053   0.27528615
866.00   0.56194814   0.27623767
867.00   0.55428715   0.27719136
868.00   0.54661756   0.27814723
869.00   0.53893937   0.27910528
870.00   0.53125258   0.28006552
871.00   0.52355719   0.28102793
872.00   0.51585320   0.28199254
873.00   0.50814062   0.28295933
874.00   0.50041945   0.28392831
875.00   0.49268968   0.28489949
876.00   0.48495132   0.28587287
877.00   0.47720436   0.28684844
878.00   0.46944881   0.28782622
879.00   0.46168467   0.28880620
880.00   0.45391195   0.28978839
881.00   0.44613063   0.29077278
882.00   0.43834072   0.29175939
883.00   0.43054223   0.29274821
884.00   0.42273515   0.29373924
885.00   0.41491948   0.29473250
886.00   0.40709523   0.29572797
887.00   0.39926239   0.29672567
888.00   0.39142097   0.29772559
889.00   0.38357097   0.29872774
890.00   0.37571239   0.29973212
891.00   0.36784522   0.30073873
892.00   0.35996948   0.30174758
893.00   0.35208515   0.30275866
894.00   0.34419225   0.30377199
895.00   0.33629077   0.30478756
896.00   0.32838071   0.30580537
897.00   0.32046208   0.30682542
898.00   0.31253487   0.30784773
899.00   0.30459909   0.30887229
900.00   0.29665474   0.30989910
901.00   0.28870181   0.31092817
902.00   0.28074031   0.31195950
903.00   0.27277024   0.31299309
904.00   0.26479160   0.31402894
905.00   0.25680439   0.31506706
906.00   0.24880861   0.31610745
907.00   0.24080427   0.31715011
908.00   0.23279136   0.31819504
909.00   0.22476988   0.31924224
910.00   0.21673984   0.32029173
911.00   0.20870124   0.32134349
912.00   0.20065407   0.32239754
913.00   0.19259834   0.32345387
914.00   0.18453405   0.32451249
915.00   0.17646119   0.32557340
916.00   0.16837978   0.32663660
917.00   0.16028981   0.32770209
918.00   0.15219129   0.32876989
919.00   0.14408420   0.32983998
920.00   0.13596856   0.33091237
921.00   0.12784436   0.33198707
922.00   0.11971161   0.33306407
923.00   0.11157031   0.33414338
924.00   0.10342045   0.33522501
925.00   0.09526204   0.33630894
926.00   0.08709508   0.33739520
927.00   0.07891958   0.33848377
928.00   0.07073552   0.33957466
929.00   0.06254291   0.34066787
930.00   0.05434176   0.34176341
931.00   0.04613206   0.34286128
932.00   0.03791381   0.34396148
933.00   0.02968702   0.34506401
934.00   0.02145168   0.34616887
935.00   0.01320781   0.34727608
936.00   0.00495539   0.34838562
937.00  -0.00330557   0.34949750
938.00  -0.01157508   0.35061173
939.00  -0.01985312   0.35172831
940.00  -0.02813970   0.35284723
941.00  -0.03643481   0.35396850
942.00  -0.04473847   0.35509213
943.00  -0.05305066   0.35621812
944.00  -0.06137138   0.35734646
945.00  -0.06970064   0.35847717
946.00  -0.07803843   0.35961024
947.00  -0.08638476   0.36074567
948.00  -0.09473961   0.36188347
949.00  -0.10310300   0.36302364
950.00  -0.11147491   0.36416619
951.00  -0.11985536   0.36531111
952.00  -0.12824433   0.36645840
953.00  -0.13664183   0.36760808
954.00  -0.14504786   0.36876014
955.00  -0.15346241   0.36991458
956.00  -0.16188548   0.37107142
957.00  -0.17031708   0.37223064
958.00  -0.17875720   0.37339225
959.00  -0.18720584   0.37455625
960.00  -0.19566301   0.37572265
961.00  -0.20412869   0.37689146
962.00  -0.21260289   0.37806266
963.00  -0.22108561   0.37923626
964.00  -0.22957685   0.38041227
965.00  -0.23807660   0.38159069
966.00  -0.24658487   0.38277152
967.00  -0.25510165   0.38395476
968.00  -0.26362695   0.38514042
969.00  -0.27216076   0.38632850
970.00  -0.28070307   0.38751899
971.00  -0.28925391   0.38871191
972.00  -0.29781325   0.38990725
973.00  -0.30638109   0.39110502
974.00  -0.31495745   0.39230522
975.00  -0.32354232   0.39350785
976.00  -0.33213569   0.39471291
977.00  -0.34073756   0.39592041
978.00  -0.34934794   0.39713035
979.00  -0.35796682   0.39834273
980.00  -0.36659421   0.39955756
981.00  -0.37523010   0.40077483
982.00  -0.38387448   0.40199454
983.00  -0.39252737   0.40321671
984.00  -0.40118876   0.40444133
985.00  -0.40985864   0.40566841
986.00  -0.41853702   0.40689794
987.00  -0.42722390   0.40812994
988.00  -0.43591927   0.40936439
989.00  -0.44462313   0.41060131
990.00  -0.45333549   0.41184070
991.00  -0.46205634   0.41308256
992.00  -0.47078569   0.41432689
993.00  -0.47952352   0.41557369
994.00  -0.48826984   0.41682297
995.00  -0.49702465   0.41807473
996.00  -0.50578795   0.41932897
997.00  -0.51455974   0.42058569
998.00  -0.52334001   0.42184490
999.00  -0.53212876   0.42310659
1000.00  -0.54092600   0.42437078
1001.00  -0.54973172   0.42563746
1002.00  -0.55854593   0.42690663
1003.00  -0.56736861   0.42817830
1004.00  -0.57619978   0.42945247
1005.00  -0.58503942   0.43072915
1006.00  -0.59388755   0.43200832
1007.00  -0.60274415   0.43329001
1008.00  -0.61160922   0.43457420
1009.00  -0.62048277   0.43586091
1010.00  -0.62936480   0.43715013
1011.00  -0.63825530   0.43844186
1012.00  -0.64715427   0.43973611
1013.00  -0.65606172   0.44103289
1014.00  -0.66497763   0.44233219
1015.00  -0.67390201   0.44363401
1016.00  -0.68283487   0.44493836
1017.00  -0.69177619   0.44624524
1018.00  -0.70072597   0.44755466
1019.00  -0.70968423   0.44886660
1020.00  -0.71865095   0.45018109
1021.00  -0.72762613   0.45149811
1022.00  -0.73660977   0.45281768
1023.00  -0.74560188   0.45413979
1024.00  -0.75460245   0.45546445
1025.00  -0.76361148   0.45679166
1026.00  -0.77262896   0.45812141
1027.00  -0.78165491   0.45945372
1028.00  -0.79068931   0.46078859
1029.00  -0.79973217   0.46212602
1030.00  -0.80878349   0.46346600
1031.00  -0.81784326   0.46480855
1032.00  -0.82691148   0.46615366
1033.00  -0.83598815   0.46750134
1034.00  -0.84507328   0.46885159
1035.00  -0.85416686   0.47020442
1036.00  -0.86326888   0.47155981
1037.00  -0.87237936   0.47291779
1038.00  -0.88149828   0.47427834
1039.00  -0.89062565   0.47564147
1040.00  -0.89976146   0.47700719
1041.00  -0.90890572   0.47837550
1042.00  -0.91805843   0.47974639
1043.00  -0.92721957   0.48111987
1044.00  -0.93638916   0.48249595
1045.00  -0.94556719   0.48387462
1046.00  -0.95475366   0.48525589
1047.00  -0.96394857   0.48663976
1048.00  -0.97315191   0.48802623
1049.00  -0.98236369   0.48941531
1050.00  -0.99158391   0.49080699
1051.00  -1.00081256   0.49220128
1052.00  -1.01004965   0.49359819
1053.00  -1.01929517   0.49499771
1054.00  -1.02854912   0.49639984
1055.00  -1.03781150   0.49780459
1056.00  -1.04708232   0.49921197
1057.00  -1.05636156   0.50062197
1058.00  -1.06564923   0.50203459
1059.00  -1.07494532   0.50344984
1060.00  -1.08424985   0.50486772
1061.00  -1.09356280   0.50628823
1062.00  -1.10288417   0.50771138
1063.00  -1.11221396   0.50913717
1064.00  -1.12155218   0.51056559
1065.00  -1.13089882   0.51199666
1066.00  -1.14025388   0.51343037
1067.00  -1.14961735   0.51486672
1068.00  -1.15898925   0.51630573
1069.00  -1.16836956   0.51774738
1070.00  -1.17775829   0.51919169
1071.00  -1.18715544   0.52063866
1072.00  -1.19656099   0.52208828
1073.00  -1.20597497   0.52354056
1074.00  -1.21539735   0.52499551
1075.00  -1.22482814   0.52645312
1076.00  -1.23426735   0.52791340
1077.00  -1.24371496   0.52937635
1078.00  -1.25317098   0.53084196
1079.00  -1.26263541   0.53231026
1080.00  -1.27210825   0.53378123
1081.00  -1.28158949   0.53525487
1082.00  -1.29107913   0.53673120
1083.00  -1.30057718   0.53821022
1084.00  -1.31008363   0.53969191
1085.00  -1.31959848   0.54117630
1086.00  -1.32912173   0.54266337
1087.00  -1.33865338   0.54415314
1088.00  -1.34819343   0.54564561
1089.00  -1.35774188   0.54714077
1090.00  -1.36729872   0.54863863
1091.00  -1.37686395   0.55013919
1092.00  -1.38643758   0.55164245
1093.00  -1.39601961   0.55314842
1094.00  -1.40561002   0.55465711
1095.00  -1.41520883   0.55616850
1096.00  -1.42481602   0.55768260
1097.00  -1.43443161   0.55919942
1098.00  -1.44405558   0.56071896
1099.00  -1.45368794   0.56224122
1100.00  -1.46332869   0.56376620
1101.00  -1.47297782   0.56529390
1102.00  -1.48263533   0.56682433
1103.00  -1.49230123   0.56835749
1104.00  -1.50197551   0.56989339
1105.00  -1.51165817   0.57143201
1106.00  -1.52134921   0.57297338
1107.00  -1.53104863   0.57451748
1108.00  -1.54075642   0.57606432
1109.00  -1.55047259   0.57761391
1110.00  -1.56019714   0.57916624
1111.00  -1.56993006   0.58072131
1112.00  -1.57967136   0.58227914
1113.00  -1.58942103   0.58383972
1114.00  -1.59917907   0.58540306
1115.00  -1.60894548   0.58696915
1116.00  -1.61872026   0.58853800
1117.00  -1.62850341   0.59010961
1118.00  -1.63829492   0.59168399
1119.00  -1.64809480   0.59326113
1120.00  -1.65790305   0.59484104
1121.00  -1.66771966   0.59642372
1122.00  -1.67754464   0.59800917
1123.00  -1.68737797   0.59959740
1124.00  -1.69721967   0.60118841
1125.00  -1.70706973   0.60278219
1126.00  -1.71692815   0.60437876
1127.00  -1.72679492   0.60597811
1128.00  -1.73667005   0.60758025
1129.00  -1.74655354   0.60918518
1130.00  -1.75644538   0.61079289
1131.00  -1.76634558   0.61240340
1132.00  -1.77625413   0.61401671
1133.00  -1.78617103   0.61563282
1134.00  -1.79609628   0.61725172
1135.00  -1.80602988   0.61887343
1136.00  -1.81597183   0.62049794
1137.00  -1.82592213   0.62212526
1138.00  -1.83588077   0.62375539
1139.00  -1.84584776   0.62538833
1140.00  -1.85582309   0.62702408
1141.00  -1.86580677   0.62866265
1142.00  -1.87579879   0.63030404
1143.00  -1.88579915   0.63194825
1144.00  -1.89580785   0.63359529
1145.00  -1.90582489   0.63524514
1146.00  -1.91585027   0.63689783
1147.00  -1.92588398   0.63855334
1148.00  -1.93592603   0.64021169
1149.00  -1.94597641   0.64187287
1150.00  -1.95603513   0.64353689
1151.00  -1.96610218   0.64520375
1152.00  -1.97617757   0.64687345
1153.00  -1.98626128   0.64854599
1154.00  -1.99635332   0.65022138
1155.00  -2.00645369   0.65189961
1156.00  -2.01656239   0.65358070
1157.00  -2.02667942   0.65526463
1158.00  -2.03680477   0.65695143
1159.00  -2.04693844   0.65864108
1160.00  -2.05708044   0.66033359
1161.00  -2.06723076   0.66202896
1162.00  -2.07738940   0.66372719
1163.00  -2.08755636   0.66542829
1164.00  -2.09773164   0.66713226
1165.00  -2.10791523   0.66883910
1166.00  -2.11810715   0.67054882
1167.00  -2.12830738   0.67226140
1168.00  -2.13851592   0.67397687
1169.00  -2.14873278   0.67569521
1170.00  -2.15895794   0.67741644
1171.00  -2.16919143   0.67914055
1172.00  -2.17943322   0.68086755
1173.00  -2.18968332   0.68259744
1174.00  -2.19994172   0.68433022
1175.00  -2.21020844   0.68606589
1176.00  -2.22048346   0.68780445
1177.00  -2.23076678   0.68954592
1178.00  -2.24105841   0.69129028
1179.00  -2.25135834   0.69303755
1180.00  -2.26166658   0.69478772
1181.00  -2.27198311   0.69654080
1182.00  -2.28230794   0.69829679
1183.00  -2.29264107   0.70005569
1184.00  -2.30298250   0.70181750
1185.00  -2.31333222   0.70358223
1186.00  -2.32369024   0.70534987
1187.00  -2.33405656   0.70712044
1188.00  -2.34443116   0.70889393
1189.00  -2.35481406   0.71067034
1190.00  -2.36520525   0.71244968
1191.00  -2.37560473   0.71423195
1192.00  -2.38601249   0.71601716
1193.00  -2.39642854   0.71780529
1194.00  -2.40685288   0.71959637
1195.00  -2.41728551   0.72139038
1196.00  -2.42772642   0.72318733
1197.00  -2.43817561   0.72498722
1198.00  -2.44863308   0.72679006
1199.00  -2.45909884   0.72859585
1200.00  -2.46957287   0.73040458
1201.00  -2.48005518   0.73221627
1202.00  -2.49054577   0.73403091
1203.00  -2.50104464   0.73584851
1204.00  -2.51155178   0.73766907
1205.00  -2.52206719   0.73949259
1206.00  -2.53259088   0.74131907
1207.00  -2.54312284   0.74314852
1208.00  -2.55366307   0.74498093
1209.00  -2.56421157   0.74681631
1210.00  -2.57476834   0.74865467
1211.00  -2.58533338   0.75049600
1212.00  -2.59590668   0.75234031
1213.00  -2.60648825   0.75418759
1214.00  -2.61707808   0.75603786
1215.00  -2.62767617   0.75789111
1216.00  -2.63828253   0.75974735
1217.00  -2.64889715   0.76160657
1218.00  -2.65952002   0.76346878
1219.00  -2.67015116   0.76533399
1220.00  -2.68079055   0.76720219
1221.00  -2.69143820   0.76907339
1222.00  -2.70209410   0.77094758
1223.00  -2.71275826   0.77282478
1224.00  -2.72343067   0.77470498
1225.00  -2.73411134   0.77658818
1226.00  -2.74480025   0.77847440
1227.00  -2.75549741   0.78036362
1228.00  -2.76620282   0.78225586
1229.00  -2.77691648   0.78415111
1230.00  -2.78763839   0.78604938
1231.00  -2.79836854   0.78795066
1232.00  -2.80910693   0.78985497
1233.00  -2.81985357   0.79176230
1234.00  -2.83060845   0.79367266
1235.00  -2.84137157   0.79558604
1236.00  -2.85214292   0.79750246
1237.00  -2.86292252   0.79942191
1238.00  -2.87371035   0.80134439
1239.00  -2.88450642   0.80326991
1240.00  -2.89531073   0.80519847
1241.00  -2.90612326   0.80713007
1242.00  -2.91694404   0.80906471
1243.00  -2.92777304   0.81100240
1244.00  -2.93861027   0.81294314
1245.00  -2.94945573   0.81488692
1246.00  -2.96030942   0.81683376
1247.00  -2.97117134   0.81878366
1248.00  -2.98204148   0.82073661
1249.00  -2.99291985   0.82269262
1250.00  -3.00380644   0.82465169
1251.00  -3.01470125   0.82661383
1252.00  -3.02560428   0.82857903
1253.00  -3.03651554   0.83054729
1254.00  -3.04743501   0.83251863
1255.00  -3.05836270   0.83449305
1256.00  -3.06929861   0.83647053
1257.00  -3.08024273   0.83845110
1258.00  -3.09119506   0.84043474
1259.00  -3.10215561   0.84242146
1260.00  -3.11312438   0.84441127
1261.00  -3.12410135   0.84640416
1262.00  -3.13508653   0.84840014
1263.00  -3.14607992   0.85039921
1264.00  -3.15708152   0.85240138
1265.00  -3.16809132   0.85440663
1266.00  -3.17910933   0.85641499
1267.00  -3.19013555   0.85842644
1268.00  -3.20116996   0.86044100
1269.00  -3.21221258   0.86245866
1270.00  -3.22326340   0.86447942
1271.00  -3.23432242   0.86650329
1272.00  -3.24538963   0.86853027
1273.00  -3.25646504   0.87056037
1274.00  -3.26754865   0.87259358
1275.00  -3.27864045   0.87462990
1276.00  -3.28974045   0.87666935
1277.00  -3.30084864   0.87871191
1278.00  -3.31196502   0.88075760
1279.00  -3.32308959   0.88280641
1280.00  -3.33422235   0.88485836
1281.00  -3.34536329   0.88691343
1282.00  -3.35651243   0.88897163
1283.00  -3.36766975   0.89103297
1284.00  -3.37883525   0.89309745
1285.00  -3.39000893   0.89516506
1286.00  -3.40119080   0.89723581
1287.00  -3.41238085   0.89930971
1288.00  -3.42357908   0.90138675
1289.00  -3.43478548   0.90346695
1290.00  -3.44600006   0.90555029
1291.00  -3.45722282   0.90763678
1292.00  -3.46845376   0.90972642
1293.00  -3.47969286   0.91181923
1294.00  -3.49094014   0.91391519
1295.00  -3.50219559   0.91601431
1296.00  -3.51345921   0.91811660
1297.00  -3.52473100   0.92022205
1298.00  -3.53601096   0.92233066
1299.00  -3.54729908   0.92444245
1300.00  -3.55859537   0.92655741
1301.00  -3.56989983   0.92867554
1302.00  -3.58121244   0.93079685
1303.00  -3.59253322   0.93292134
1304.00  -3.60386216   0.93504901
1305.00  -3.61519926   0.93717986
1306.00  -3.62654451   0.93931389
1307.00  -3.63789793   0.94145111
1308.00  -3.64925950   0.94359153
1309.00  -3.66062922   0.94573513
1310.00  -3.67200710   0.94788193
1311.00  -3.68339313   0.95003192
1312.00  -3.69478731   0.95218511
1313.00  -3.70618964   0.95434150
1314.00  -3.71760012   0.95650109
1315.00  -3.72901875   0.95866389
1316.00  -3.74044552   0.96082989
1317.00  -3.75188044   0.96299911
1318.00  -3.76332350   0.96517153
1319.00  -3.77477471   0.96734717
1320.00  -3.78623405   0.96952602
1321.00  -3.79770154   0.97170809
1322.00  -3.80917717   0.97389338
1323.00  -3.82066093   0.97608190
1324.00  -3.83215283   0.97827363
1325.00  -3.84365287   0.98046860
1326.00  -3.85516104   0.98266679
1327.00  -3.86667734   0.98486821
1328.00  -3.87820178   0.98707287
1329.00  -3.88973435   0.98928076
1330.00  -3.90127504   0.99149189
1331.00  -3.91282387   0.99370625
1332.00  -3.92438082   0.99592386
1333.00  -3.93594590   0.99814472
1334.00  -3.94751910   1.00036881
1335.00  -3.95910042   1.00259616
1336.00  -3.97068987   1.00482676
1337.00  -3.98228744   1.00706061
1338.00  -3.99389313   1.00929771
1339.00  -4.00550694   1.01153808
1340.00  -4.01712887   1.01378170
1341.00  -4.02875891   1.01602858
1342.00  -4.04039706   1.01827872
1343.00  -4.05204333   1.02053214
1344.00  -4.06369772   1.02278881
1345.00  -4.07536021   1.02504876
1346.00  -4.08703082   1.02731198
1347.00  -4.09870953   1.02957848
1348.00  -4.11039635   1.03184825
1349.00  -4.12209128   1.03412130
1350.00  -4.13379431   1.03639763
1351.00  -4.14550545   1.03867724
1352.00  -4.15722469   1.04096014
1353.00  -4.16895203   1.04324633
1354.00  -4.18068748   1.04553580
1355.00  -4.19243102   1.04782857
1356.00  -4.20418266   1.05012463
1357.00  -4.21594239   1.05242398
1358.00  -4.22771022   1.05472664
1359.00  -4.23948615   1.05703259
1360.00  -4.25127017   1.05934185
1361.00  -4.26306228   1.06165441
1362.00  -4.27486248   1.06397028
1363.00  -4.28667077   1.06628946
1364.00  -4.29848715   1.06861195
1365.00  -4.31031162   1.07093775
1366.00  -4.32214417   1.07326686
1367.00  -4.33398481   1.07559930
1368.00  -4.34583353   1.07793505
1369.00  -4.35769033   1.08027413
1370.00  -4.36955521   1.08261653
1371.00  -4.38142817   1.08496225
1372.00  -4.39330921   1.08731130
1373.00  -4.40519833   1.08966369
1374.00  -4.41709552   1.09201941
1375.00  -4.42900079   1.09437846
1376.00  -4.44091413   1.09674084
1377.00  -4.45283554   1.09910657
1378.00  -4.46476503   1.10147564
1379.00  -4.47670258   1.10384805
1380.00  -4.48864820   1.10622381
1381.00  -4.50060189   1.10860291
1382.00  -4.51256364   1.11098537
1383.00  -4.52453346   1.11337118
1384.00  -4.53651135   1.11576034
1385.00  -4.54849729   1.11815285
1386.00  -4.56049130   1.12054873
1387.00  -4.57249336   1.12294796
1388.00  -4.58450349   1.12535056
1389.00  -4.59652167   1.12775653
1390.00  -4.60854790   1.13016586
1391.00  -4.62058220   1.13257855
1392.00  -4.63262454   1.13499463
1393.00  -4.64467494   1.13741407
1394.00  -4.65673339   1.13983689
1395.00  -4.66879988   1.14226309
1396.00  -4.68087443   1.14469266
1397.00  -4.69295702   1.14712562
1398.00  -4.70504766   1.14956196
1399.00  -4.71714635   1.15200169
1400.00  -4.72925307   1.15444481
1401.00  -4.74136784   1.15689132
1402.00  -4.75349065   1.15934122
1403.00  -4.76562150   1.16179451
1404.00  -4.77776039   1.16425120
1405.00  -4.78990732   1.16671130
1406.00  -4.80206228   1.16917479
1407.00  -4.81422527   1.17164168
1408.00  -4.82639630   1.17411198
1409.00  -4.83857536   1.17658569
1410.00  -4.85076245   1.17906281
1411.00  -4.86295758   1.18154334
1412.00  -4.87516073   1.18402728
1413.00  -4.88737190   1.18651464
1414.00  -4.89959110   1.18900542
1415.00  -4.91181833   1.19149962
1416.00  -4.92405358   1.19399724
1417.00  -4.93629685   1.19649829
1418.00  -4.94854814   1.19900276
1419.00  -4.96080746   1.20151066
1420.00  -4.97307479   1.20402199
1421.00  -4.98535013   1.20653676
1422.00  -4.99763349   1.20905496
1423.00  -5.00992487   1.21157660
1424.00  -5.02222426   1.21410167
1425.00  -5.03453166   1.21663019
1426.00  -5.04684707   1.21916216
1427.00  -5.05917049   1.22169756
1428.00  -5.07150192   1.22423642
1429.00  -5.08384136   1.22677873
1430.00  -5.09618880   1.22932449
1431.00  -5.10854424   1.23187370
1432.00  -5.12090769   1.23442637
1433.00  -5.13327914   1.23698250
1434.00  -5.14565859   1.23954209
1435.00  -5.15804604   1.24210514
1436.00  -5.17044148   1.24467166
1437.00  -5.18284492   1.24724164
1438.00  -5.19525636   1.24981509
1439.00  -5.20767579   1.25239202
1440.00  -5.22010321   1.25497241
1441.00  -5.23253863   1.25755629
1442.00  -5.24498203   1.26014364
1443.00  -5.25743343   1.26273447
1444.00  -5.26989281   1.26532878
1445.00  -5.28236017   1.26792658
1446.00  -5.29483552   1.27052786
1447.00  -5.30731886   1.27313263
1448.00  -5.31981018   1.27574089
1449.00  -5.33230947   1.27835264
1450.00  -5.34481675   1.28096789
1451.00  -5.35733201   1.28358663
1452.00  -5.36985524   1.28620888
1453.00  -5.38238645   1.28883462
1454.00  -5.39492563   1.29146387
1455.00  -5.40747279   1.29409662
1456.00  -5.42002792   1.29673288
1457.00  -5.43259101   1.29937265
1458.00  -5.44516208   1.30201592
1459.00  -5.45774112   1.30466272
1460.00  -5.47032812   1.30731303
1461.00  -5.48292309   1.30996685
1462.00  -5.49552602   1.31262420
1463.00  -5.50813691   1.31528507
1464.00  -5.52075577   1.31794946
1465.00  -5.53338259   1.32061737
1466.00  -5.54601736   1.32328882
1467.00  -5.55866009   1.32596380
1468.00  -5.57131078   1.32864231
1469.00  -5.58396942   1.33132435
1470.00  -5.59663602   1.33400993
1471.00  -5.60931057   1.33669905
1472.00  -5.62199307   1.33939170
1473.00  -5.63468352   1.34208791
1474.00  -5.64738192   1.34478765
1475.00  -5.66008826   1.34749095
1476.00  -5.67280255   1.35019779
1477.00  -5.68552479   1.35290818
1478.00  -5.69825497   1.35562213
1479.00  -5.71099309   1.35833963
1480.00  -5.72373915   1.36106069
1481.00  -5.73649315   1.36378531
1482.00  -5.74925509   1.36651349
1483.00  -5.76202496   1.36924524
1484.00  -5.77480277   1.37198055
1485.00  -5.78758851   1.37471943
1486.00  -5.80038219   1.37746188
1487.00  -5.81318379   1.38020790
1488.00  -5.82599333   1.38295750
1489.00  -5.83881080   1.38571067
1490.00  -5.85163619   1.38846742
1491.00  -5.86446951   1.39122775
1492.00  -5.87731075   1.39399166
1493.00  -5.89015992   1.39675916
1494.00  -5.90301701   1.39953024
1495.00  -5.91588202   1.40230491
1496.00  -5.92875495   1.40508318
1497.00  -5.94163579   1.40786504
1498.00  -5.95452456   1.41065049
1499.00  -5.96742123   1.41343954
1500.00  -5.98032583   1.41623218
1501.00  -5.99323833   1.41902843
1502.00  -6.00615875   1.42182829
1503.00  -6.01908708   1.42463174
1504.00  -6.03202331   1.42743881
1505.00  -6.04496745   1.43024948
1506.00  -6.05791950   1.43306377
1507.00  -6.07087946   1.43588167
1508.00  -6.08384731   1.43870319
1509.00  -6.09682307   1.44152832
1510.00  -6.10980673   1.44435708
1511.00  -6.12279829   1.44718945
1512.00  -6.13579775   1.45002545
1513.00  -6.14880510   1.45286508
1514.00  -6.16182035   1.45570833
1515.00  -6.17484349   1.45855522
1516.00  -6.18787453   1.46140573
1517.00  -6.20091346   1.46425989
1518.00  -6.21396027   1.46711767
1519.00  -6.22701498   1.46997910
1520.00  -6.24007757   1.47284417
1521.00  -6.25314805   1.47571288
1522.00  -6.26622641   1.47858523
1523.00  -6.27931266   1.48146123
1524.00  -6.29240679   1.48434088
1525.00  -6.30550880   1.48722418
1526.00  -6.31861869   1.49011114
1527.00  -6.33173645   1.49300175
1528.00  -6.34486210   1.49589601
1529.00  -6.35799561   1.49879394
1530.00  -6.37113700   1.50169553
1531.00  -6.38428627   1.50460078
1532.00  -6.39744340   1.50750969
1533.00  -6.41060841   1.51042227
1534.00  -6.42378128   1.51333853
1535.00  -6.43696202   1.51625845
1536.00  -6.45015063   1.51918205
1537.00  -6.46334710   1.52210932
1538.00  -6.47655143   1.52504027
1539.00  -6.48976363   1.52797490
1540.00  -6.50298368   1.53091322
1541.00  -6.51621160   1.53385521
1542.00  -6.52944737   1.53680089
1543.00  -6.54269100   1.53975026
1544.00  -6.55594248   1.54270332
1545.00  -6.56920182   1.54566008
1546.00  -6.58246901   1.54862052
1547.00  -6.59574405   1.55158467
1548.00  -6.60902693   1.55455251
1549.00  -6.62231767   1.55752405
1550.00  -6.63561625   1.56049929
1551.00  -6.64892268   1.56347824
1552.00  -6.66223696   1.56646089
1553.00  -6.67555907   1.56944726
1554.00  -6.68888903   1.57243733
1555.00  -6.70222682   1.57543111
1556.00  -6.71557246   1.57842861
1557.00  -6.72892593   1.58142983
1558.00  -6.74228724   1.58443477
1559.00  -6.75565638   1.58744342
1560.00  -6.76903335   1.59045580
1561.00  -6.78241816   1.59347191
1562.00  -6.79581080   1.59649174
1563.00  -6.80921126   1.59951530
1564.00  -6.82261956   1.60254259
1565.00  -6.83603568   1.60557361
1566.00  -6.84945962   1.60860837
1567.00  -6.86289139   1.61164687
1568.00  -6.87633098   1.61468910
1569.00  -6.88977839   1.61773508
1570.00  -6.90323362   1.62078480
1571.00  -6.91669666   1.62383826
1572.00  -6.93016753   1.62689547
1573.00  -6.94364621   1.62995643
1574.00  -6.95713270   1.63302114
1575.00  -6.97062700   1.63608961
1576.00  -6.98412912   1.63916183
1577.00  -6.99763904   1.64223781
1578.00  -7.01115678   1.64531754
1579.00  -7.02468232   1.64840104
1580.00  -7.03821566   1.65148831
1581.00  -7.05175681   1.65457933
1582.00  -7.06530577   1.65767413
1583.00  -7.07886252   1.66077269
1584.00  -7.09242707   1.66387503
1585.00  -7.10599942   1.66698114
1586.00  -7.11957957   1.67009102
1587.00  -7.13316752   1.67320469
1588.00  -7.14676326   1.67632213
1589.00  -7.16036679   1.67944336
1590.00  -7.17397811   1.68256836
1591.00  -7.18759723   1.68569716
1592.00  -7.20122413   1.68882974
1593.00  -7.21485882   1.69196611
1594.00  -7.22850130   1.69510627
1595.00  -7.24215156   1.69825023
1596.00  -7.25580960   1.70139799
1597.00  -7.26947542   1.70454954
1598.00  -7.28314903   1.70770489
1599.00  -7.29683041   1.71086404
1600.00  -7.31051958   1.71402700
1601.00  -7.32421652   1.71719376
1602.00  -7.33792123   1.72036433
1603.00  -7.35163372   1.72353871
1604.00  -7.36535397   1.72671690
1605.00  -7.37908200   1.72989891
1606.00  -7.39281780   1.73308473
1607.00  -7.40656137   1.73627437
1608.00  -7.42031270   1.73946783
1609.00  -7.43407180   1.74266511
1610.00  -7.44783866   1.74586622
1611.00  -7.46161328   1.74907115
1612.00  -7.47539567   1.75227991
1613.00  -7.48918581   1.75549250
1614.00  -7.50298371   1.75870893
1615.00  -7.51678937   1.76192918
1616.00  -7.53060278   1.76515328
1617.00  -7.54442395   1.76838121
1618.00  -7.55825287   1.77161298
1619.00  -7.57208954   1.77484859
1620.00  -7.58593396   1.77808805
1621.00  -7.59978613   1.78133135
1622.00  -7.61364604   1.78457850
1623.00  -7.62751370   1.78782951
1624.00  -7.64138910   1.79108436
1625.00  -7.65527225   1.79434307
1626.00  -7.66916314   1.79760563
1627.00  -7.68306176   1.80087205
1628.00  -7.69696813   1.80414234
1629.00  -7.71088223   1.80741648
1630.00  -7.72480406   1.81069449
1631.00  -7.73873363   1.81397636
1632.00  -7.75267094   1.81726211
1633.00  -7.76661597   1.82055172
1634.00  -7.78056873   1.82384520
1635.00  -7.79452923   1.82714256
1636.00  -7.80849745   1.83044380
1637.00  -7.82247339   1.83374891
1638.00  -7.83645706   1.83705790
1639.00  -7.85044845   1.84037078
1640.00  -7.86444756   1.84368754
1641.00  -7.87845439   1.84700818
1642.00  -7.89246894   1.85033272
1643.00  -7.90649121   1.85366114
1644.00  -7.92052119   1.85699345
1645.00  -7.93455888   1.86032966
1646.00  -7.94860429   1.86366977
1647.00  -7.96265741   1.86701377
1648.00  -7.97671824   1.87036167
1649.00  -7.99078678   1.87371348
1650.00  -8.00486302   1.87706919
1651.00  -8.01894697   1.88042880
1652.00  -8.03303863   1.88379233
1653.00  -8.04713798   1.88715976
1654.00  -8.06124504   1.89053110
1655.00  -8.07535980   1.89390636
1656.00  -8.08948225   1.89728553
1657.00  -8.10361240   1.90066863
1658.00  -8.11775025   1.90405564
1659.00  -8.13189579   1.90744657
1660.00  -8.14604903   1.91084143
1661.00  -8.16020995   1.91424021
1662.00  -8.17437857   1.91764292
1663.00  -8.18855487   1.92104956
1664.00  -8.20273886   1.92446013
1665.00  -8.21693053   1.92787464
1666.00  -8.23112989   1.93129308
1667.00  -8.24533693   1.93471546
1668.00  -8.25955165   1.93814177
1669.00  -8.27377405   1.94157203
1670.00  -8.28800413   1.94500623
1671.00  -8.30224189   1.94844438
1672.00  -8.31648732   1.95188648
1673.00  -8.33074042   1.95533252
1674.00  -8.34500120   1.95878252
1675.00  -8.35926965   1.96223647
1676.00  -8.37354577   1.96569437
1677.00  -8.38782955   1.96915623
1678.00  -8.40212100   1.97262206
1679.00  -8.41642012   1.97609184
1680.00  -8.43072690   1.97956558
1681.00  -8.44504134   1.98304329
1682.00  -8.45936345   1.98652497
1683.00  -8.47369321   1.99001062
1684.00  -8.48803063   1.99350024
1685.00  -8.50237570   1.99699383
1686.00  -8.51672844   2.00049139
1687.00  -8.53108882   2.00399293
1688.00  -8.54545686   2.00749846
1689.00  -8.55983254   2.01100796
1690.00  -8.57421588   2.01452144
1691.00  -8.58860686   2.01803891
1692.00  -8.60300549   2.02156037
1693.00  -8.61741177   2.02508581
1694.00  -8.63182569   2.02861525
1695.00  -8.64624724   2.03214867
1696.00  -8.66067644   2.03568610
1697.00  -8.67511328   2.03922751
1698.00  -8.68955776   2.04277293
1699.00  -8.70400987   2.04632235
1700.00  -8.71846962   2.04987577
1701.00  -8.73293700   2.05343319
1702.00  -8.74741201   2.05699462
1703.00  -8.76189465   2.06056006
1704.00  -8.77638492   2.06412951
1705.00  -8.79088281   2.06770297
1706.00  -8.80538833   2.07128044
1707.00  -8.81990148   2.07486193
1708.00  -8.83442225   2.07844744
1709.00  -8.84895064   2.08203697
1710.00  -8.86348665   2.08563052
1711.00  -8.87803028   2.08922809
1712.00  -8.89258152   2.09282969
1713.00  -8.90714038   2.09643531
1714.00  -8.92170686   2.10004497
1715.00  -8.93628094   2.10365866
1716.00  -8.95086264   2.10727638
1717.00  -8.96545195   2.11089813
1718.00  -8.98004886   2.11452393
1719.00  -8.99465338   2.11815376
1720.00  -9.00926551   2.12178763
1721.00  -9.02388524   2.12542555
1722.00  -9.03851257   2.12906751
1723.00  -9.05314750   2.13271352
1724.00  -9.06779004   2.13636358
1725.00  -9.08244017   2.14001769
1726.00  -9.09709789   2.14367585
1727.00  -9.11176321   2.14733807
1728.00  -9.12643612   2.15100434
1729.00  -9.14111663   2.15467467
1730.00  -9.15580472   2.15834906
1731.00  -9.17050041   2.16202752
1732.00  -9.18520368   2.16571003
1733.00  -9.19991454   2.16939662
1734.00  -9.21463298   2.17308727
1735.00  -9.22935900   2.17678199
1736.00  -9.24409261   2.18048079
1737.00  -9.25883379   2.18418366
1738.00  -9.27358256   2.18789060
1739.00  -9.28833890   2.19160163
1740.00  -9.30310281   2.19531673
1741.00  -9.31787430   2.19903592
1742.00  -9.33265336   2.20275918
1743.00  -9.34744000   2.20648654
1744.00  -9.36223420   2.21021798
1745.00  -9.37703597   2.21395351
1746.00  -9.39184530   2.21769313
1747.00  -9.40666221   2.22143685
1748.00  -9.42148667   2.22518466
1749.00  -9.43631870   2.22893656
1750.00  -9.45115829   2.23269257
1751.00  -9.46600543   2.23645268
1752.00  -9.48086013   2.24021689
1753.00  -9.49572239   2.24398520
1754.00  -9.51059221   2.24775762
1755.00  -9.52546958   2.25153415
1756.00  -9.54035449   2.25531480
1757.00  -9.55524696   2.25909955
1758.00  -9.57014698   2.26288842
1759.00  -9.58505454   2.26668140
1760.00  -9.59996965   2.27047850
1761.00  -9.61489230   2.27427972
1762.00  -9.62982250   2.27808507
1763.00  -9.64476024   2.28189453
1764.00  -9.65970551   2.28570813
1765.00  -9.67465833   2.28952585
1766.00  -9.68961868   2.29334770
1767.00  -9.70458656   2.29717368
1768.00  -9.71956198   2.30100379
1769.00  -9.73454493   2.30483805
1770.00  -9.74953541   2.30867643
1771.00  -9.76453342   2.31251896
1772.00  -9.77953896   2.31636563
1773.00  -9.79455202   2.32021644
1774.00  -9.80957261   2.32407139
1775.00  -9.82460072   2.32793050
1776.00  -9.83963635   2.33179375
1777.00  -9.85467950   2.33566115
1778.00  -9.86973017   2.33953270
1779.00  -9.88478836   2.34340841
1780.00  -9.89985406   2.34728828
1781.00  -9.91492728   2.35117230
1782.00  -9.93000800   2.35506048
1783.00  -9.94509624   2.35895283
1784.00  -9.96019199   2.36284933
1785.00  -9.97529525   2.36675001
1786.00  -9.99040601   2.37065485
1787.00 -10.00552427   2.37456386
1788.00 -10.02065004   2.37847704
1789.00 -10.03578332   2.38239440
1790.00 -10.05092409   2.38631593
1791.00 -10.06607236   2.39024164
1792.00 -10.08122812   2.39417152
1793.00 -10.09639139   2.39810559
1794.00 -10.11156214   2.40204384
1795.00 -10.12674039   2.40598628
1796.00 -10.14192613   2.40993290
1797.00 -10.15711936   2.41388371
1798.00 -10.17232008   2.41783871
1799.00 -10.18752828   2.42179790
1800.00 -10.20274397   2.42576129
1801.00 -10.21796714   2.42972887
1802.00 -10.23319780   2.43370065
1803.00 -10.24843593   2.43767663
1804.00 -10.26368155   2.44165681
1805.00 -10.27893464   2.44564119
1806.00 -10.29419520   2.44962978
1807.00 -10.30946324   2.45362258
1808.00 -10.32473875   2.45761958
1809.00 -10.34002174   2.46162080
1810.00 -10.35531219   2.46562623
1811.00 -10.37061011   2.46963587
1812.00 -10.38591550   2.47364973
1813.00 -10.40122836   2.47766781
1814.00 -10.41654867   2.48169011
1815.00 -10.43187645   2.48571664
1816.00 -10.44721169   2.48974738
1817.00 -10.46255439   2.49378235
1818.00 -10.47790454   2.49782155
1819.00 -10.49326215   2.50186498
1820.00 -10.50862722   2.50591264
1821.00 -10.52399974   2.50996454
1822.00 -10.53937971   2.51402067
1823.00 -10.55476712   2.51808103
1824.00 -10.57016199   2.52214564
1825.00 -10.58556430   2.52621449
1826.00 -10.60097406   2.53028757
1827.00 -10.61639126   2.53436491
1828.00 -10.63181591   2.53844649
1829.00 -10.64724799   2.54253232
1830.00 -10.66268752   2.54662240
1831.00 -10.67813448   2.55071673
1832.00 -10.69358887   2.55481531
1833.00 -10.70905070   2.55891815
1834.00 -10.72451996   2.56302525
1835.00 -10.73999666   2.56713661
1836.00 -10.75548078   2.57125223
1837.00 -10.77097233   2.57537211
1838.00 -10.78647131   2.57949626
1839.00 -10.80197771   2.58362467
1840.00 -10.81749154   2.58775736
1841.00 -10.83301279   2.59189431
1842.00 -10.84854146   2.59603554
1843.00 -10.86407754   2.60018104
1844.00 -10.87962105   2.60433081
1845.00 -10.89517197   2.60848487
1846.00 -10.91073030   2.61264320
1847.00 -10.92629605   2.61680582
1848.00 -10.94186921   2.62097272
1849.00 -10.95744977   2.62514391
1850.00 -10.97303775   2.62931938
1851.00 -10.98863313   2.63349914
1852.00 -11.00423591   2.63768319
1853.00 -11.01984610   2.64187154
1854.00 -11.03546369   2.64606418
1855.00 -11.05108868   2.65026112
1856.00 -11.06672107   2.65446236
1857.00 -11.08236086   2.65866789
1858.00 -11.09800804   2.66287773
1859.00 -11.11366261   2.66709187
1860.00 -11.12932458   2.67131032
1861.00 -11.14499394   2.67553307
1862.00 -11.16067069   2.67976014
1863.00 -11.17635482   2.68399152
1864.00 -11.19204634   2.68822721
1865.00 -11.20774525   2.69246721
1866.00 -11.22345153   2.69671153
1867.00 -11.23916520   2.70096017
1868.00 -11.25488625   2.70521313
1869.00 -11.27061468   2.70947041
1870.00 -11.28635048   2.71373202
1871.00 -11.30209366   2.71799795
1872.00 -11.31784421   2.72226821
1873.00 -11.33360214   2.72654280
1874.00 -11.34936743   2.73082173
1875.00 -11.36514010   2.73510498
1876.00 -11.38092013   2.73939257
1877.00 -11.39670752   2.74368450
1878.00 -11.41250228   2.74798076
1879.00 -11.42830441   2.75228137
1880.00 -11.44411389   2.75658632
1881.00 -11.45993073   2.76089561
1882.00 -11.47575493   2.76520925
1883.00 -11.49158649   2.76952724
1884.00 -11.50742540   2.77384958
1885.00 -11.52327166   2.77817626
1886.00 -11.53912528   2.78250731
1887.00 -11.55498625   2.78684270
1888.00 -11.57085456   2.79118246
1889.00 -11.58673022   2.79552657
1890.00 -11.60261323   2.79987505
1891.00 -11.61850358   2.80422788
1892.00 -11.63440127   2.80858508
1893.00 -11.65030630   2.81294665
1894.00 -11.66621867   2.81731259
1895.00 -11.68213838   2.82168289
1896.00 -11.69806542   2.82605757
1897.00 -11.71399980   2.83043662
1898.00 -11.72994151   2.83482004
1899.00 -11.74589055   2.83920785
1900.00 -11.76184692   2.84360003
1901.00 -11.77781062   2.84799659
1902.00 -11.79378164   2.85239753
1903.00 -11.80975999   2.85680286
1904.00 -11.82574566   2.86121258
1905.00 -11.84173866   2.86562668
1906.00 -11.85773897   2.87004517
1907.00 -11.87374660   2.87446806
1908.00 -11.88976155   2.87889533
1909.00 -11.90578381   2.88332701
1910.00 -11.92181339   2.88776308
1911.00 -11.93785028   2.89220354
1912.00 -11.95389448   2.89664841
1913.00 -11.96994598   2.90109768
1914.00 -11.98600480   2.90555136
1915.00 -12.00207092   2.91000944
1916.00 -12.01814434   2.91447193
1917.00 -12.03422507   2.91893883
1918.00 -12.05031309   2.92341014
1919.00 -12.06640842   2.92788586
1920.00 -12.08251104   2.93236600
1921.00 -12.09862096   2.93685056
1922.00 -12.11473818   2.94133953
1923.00 -12.13086268   2.94583293
1924.00 -12.14699448   2.95033074
1925.00 -12.16313357   2.95483298
1926.00 -12.17927994   2.95933965
1927.00 -12.19543360   2.96385074
1928.00 -12.21159455   2.96836627
1929.00 -12.22776278   2.97288622
1930.00 -12.24393829   2.97741061
1931.00 -12.26012108   2.98193943
1932.00 -12.27631115   2.98647269
1933.00 -12.29250850   2.99101039
1934.00 -12.30871312   2.99555253
1935.00 -12.32492501   3.00009911
1936.00 -12.34114418   3.00465013
1937.00 -12.35737062   3.00920560
1938.00 -12.37360432   3.01376551
1939.00 -12.38984529   3.01832988
1940.00 -12.40609353   3.02289869
1941.00 -12.42234903   3.02747196
1942.00 -12.43861180   3.03204968
1943.00 -12.45488182   3.03663186
1944.00 -12.47115911   3.04121850
1945.00 -12.48744365   3.04580960
1946.00 -12.50373545   3.05040516
1947.00 -12.52003450   3.05500518
1948.00 -12.53634080   3.05960966
1949.00 -12.55265436   3.06421862
1950.00 -12.56897516   3.06883204
1951.00 -12.58530321   3.07344993
1952.00 -12.60163851   3.07807230
1953.00 -12.61798106   3.08269914
1954.00 -12.63433084   3.08733045
1955.00 -12.65068787   3.09196624
1956.00 -12.66705214   3.09660652
1957.00 -12.68342364   3.10125127
1958.00 -12.69980238   3.10590050
1959.00 -12.71618836   3.11055422
1960.00 -12.73258157   3.11521243
1961.00 -12.74898201   3.11987513
1962.00 -12.76538968   3.12454231
1963.00 -12.78180458   3.12921399
1964.00 -12.79822671   3.13389016
1965.00 -12.81465606   3.13857082
1966.00 -12.83109264   3.14325599
1967.00 -12.84753644   3.14794565
1968.00 -12.86398745   3.15263981
1969.00 -12.88044569   3.15733847
1970.00 -12.89691114   3.16204164
1971.00 -12.91338381   3.16674931
1972.00 -12.92986370   3.17146150
1973.00 -12.94635079   3.17617819
1974.00 -12.96284510   3.18089939
1975.00 -12.97934661   3.18562510
1976.00 -12.99585533   3.19035533
1977.00 -13.01237126   3.19509008
1978.00 -13.02889439   3.19982934
1979.00 -13.04542473   3.20457313
1980.00 -13.06196226   3.20932143
1981.00 -13.07850699   3.21407426
1982.00 -13.09505893   3.21883162
1983.00 -13.11161805   3.22359350
1984.00 -13.12818437   3.22835991
1985.00 -13.14475789   3.23313085
1986.00 -13.16133859   3.23790632
1987.00 -13.17792649   3.24268633
1988.00 -13.19452157   3.24747087
1989.00 -13.21112384   3.25225995
1990.00 -13.22773329   3.25705357
1991.00 -13.24434993   3.26185173
1992.00 -13.26097375   3.26665443
1993.00 -13.27760474   3.27146168
1994.00 -13.29424292   3.27627348
1995.00 -13.31088827   3.28108982
1996.00 -13.32754079   3.28591071
1997.00 -13.34420049   3.29073615
1998.00 -13.36086736   3.29556615
1999.00 -13.37754140   3.30040070
2000.00 -13.39422261   3.30523981
