wavelength(nm)         real         imag
200.00   3.81141578   0.00169301
201.00   3.81052805   0.00171852
202.00   3.80963590   0.00174429
203.00   3.80873933   0.00177032
204.00   3.80783834   0.00179660
205.00   3.80693293   0.00182315
206.00   3.80602309   0.00184995
207.00   3.80510884   0.00187702
208.00   3.80419016   0.00190434
209.00   3.80326707   0.00193194
210.00   3.80233956   0.00195979
211.00   3.80140762   0.00198791
212.00   3.80047126   0.00201631
213.00   3.79953049   0.00204496
214.00   3.79858529   0.00207389
215.00   3.79763568   0.00210310
216.00   3.79668165   0.00213257
217.00   3.79572319   0.00216232
218.00   3.79476032   0.00219234
219.00   3.79379303   0.00222264
220.00   3.79282131   0.00225322
221.00   3.79184518   0.00228407
222.00   3.79086463   0.00231521
223.00   3.78987967   0.00234663
224.00   3.78889028   0.00237833
225.00   3.78789647   0.00241031
226.00   3.78689825   0.00244259
227.00   3.78589560   0.00247514
228.00   3.78488854   0.00250799
229.00   3.78387706   0.00254112
230.00   3.78286117   0.00257455
231.00   3.78184085   0.00260826
232.00   3.78081612   0.00264227
233.00   3.77978697   0.00267657
234.00   3.77875340   0.00271117
235.00   3.77771541   0.00274607
236.00   3.77667301   0.00278126
237.00   3.77562618   0.00281676
238.00   3.77457495   0.00285255
239.00   3.77351929   0.00288864
240.00   3.77245922   0.00292504
241.00   3.77139473   0.00296175
242.00   3.77032582   0.00299875
243.00   3.76925250   0.00303607
244.00   3.76817476   0.00307369
245.00   3.76709260   0.00311162
246.00   3.76600603   0.00314987
247.00   3.76491504   0.00318842
248.00   3.76381964   0.00322729
249.00   3.76271982   0.00326647
250.00   3.76161558   0.00330597
251.00   3.76050693   0.00334579
252.00   3.75939386   0.00338592
253.00   3.75827638   0.00342637
254.00   3.75715448   0.00346715
255.00   3.75602817   0.00350824
256.00   3.75489744   0.00354966
257.00   3.75376230   0.00359141
258.00   3.75262274   0.00363347
259.00   3.75147877   0.00367587
260.00   3.75033038   0.00371860
261.00   3.74917758   0.00376165
262.00   3.74802036   0.00380503
263.00   3.74685873   0.00384875
264.00   3.74569269   0.00389280
265.00   3.74452223   0.00393719
266.00   3.74334736   0.00398191
267.00   3.74216807   0.00402697
268.00   3.74098437   0.00407236
269.00   3.73979626   0.00411810
270.00   3.73860373   0.00416418
271.00   3.73740679   0.00421060
272.00   3.73620544   0.00425736
273.00   3.73499968   0.00430447
274.00   3.73378950   0.00435192
275.00   3.73257491   0.00439972
276.00   3.73135591   0.00444787
277.00   3.73013249   0.00449637
278.00   3.72890466   0.00454522
279.00   3.72767242   0.00459442
280.00   3.72643577   0.00464398
281.00   3.72519471   0.00469389
282.00   3.72394923   0.00474416
283.00   3.72269935   0.00479478
284.00   3.72144505   0.00484576
285.00   3.72018634   0.00489711
286.00   3.71892322   0.00494881
287.00   3.71765569   0.00500088
288.00   3.71638374   0.00505331
289.00   3.71510739   0.00510610
290.00   3.71382663   0.00515926
291.00   3.71254145   0.00521279
292.00   3.71125187   0.00526669
293.00   3.70995787   0.00532095
294.00   3.70865947   0.00537559
295.00   3.70735665   0.00543060
296.00   3.70604943   0.00548599
297.00   3.70473780   0.00554175
298.00   3.70342175   0.00559788
299.00   3.70210130   0.00565439
300.00   3.70077644   0.00571129
301.00   3.69944717   0.00576856
302.00   3.69811349   0.00582621
303.00   3.69677540   0.00588425
304.00   3.69543290   0.00594267
305.00   3.69408600   0.00600147
306.00   3.69273468   0.00606066
307.00   3.69137896   0.00612024
308.00   3.69001883   0.00618021
309.00   3.68865429   0.00624056
310.00   3.68728535   0.00630131
311.00   3.68591199   0.00636245
312.00   3.68453423   0.00642399
313.00   3.68315207   0.00648592
314.00   3.68176549   0.00654825
315.00   3.68037451   0.00661097
316.00   3.67897912   0.00667409
317.00   3.67757933   0.00673762
318.00   3.67617512   0.00680154
319.00   3.67476652   0.00686587
320.00   3.67335350   0.00693060
321.00   3.67193608   0.00699574
322.00   3.67051425   0.00706128
323.00   3.66908802   0.00712723
324.00   3.66765739   0.00719359
325.00   3.66622234   0.00726036
326.00   3.66478289   0.00732754
327.00   3.66333904   0.00739514
328.00   3.66189078   0.00746315
329.00   3.66043812   0.00753157
330.00   3.65898105   0.00760041
331.00   3.65751958   0.00766967
332.00   3.65605370   0.00773935
333.00   3.65458342   0.00780944
334.00   3.65310874   0.00787996
335.00   3.65162965   0.00795090
336.00   3.65014616   0.00802227
337.00   3.64865826   0.00809406
338.00   3.64716597   0.00816628
339.00   3.64566926   0.00823892
340.00   3.64416816   0.00831200
341.00   3.64266265   0.00838550
342.00   3.64115274   0.00845944
343.00   3.63963843   0.00853381
344.00   3.63811971   0.00860861
345.00   3.63659660   0.00868385
346.00   3.63506908   0.00875953
347.00   3.63353715   0.00883564
348.00   3.63200083   0.00891219
349.00   3.63046011   0.00898919
350.00   3.62891498   0.00906662
351.00   3.62736545   0.00914450
352.00   3.62581153   0.00922282
353.00   3.62425320   0.00930159
354.00   3.62269047   0.00938080
355.00   3.62112334   0.00946046
356.00   3.61955181   0.00954058
357.00   3.61797588   0.00962114
358.00   3.61639555   0.00970215
359.00   3.61481082   0.00978362
360.00   3.61322169   0.00986554
361.00   3.61162816   0.00994791
362.00   3.61003023   0.01003075
363.00   3.60842790   0.01011404
364.00   3.60682118   0.01019779
365.00   3.60521005   0.01028200
366.00   3.60359453   0.01036667
367.00   3.60197460   0.01045180
368.00   3.60035028   0.01053740
369.00   3.59872156   0.01062347
370.00   3.59708845   0.01071000
371.00   3.59545093   0.01079700
372.00   3.59380902   0.01088447
373.00   3.59216271   0.01097241
374.00   3.59051201   0.01106082
375.00   3.58885690   0.01114970
376.00   3.58719740   0.01123906
377.00   3.58553351   0.01132890
378.00   3.58386521   0.01141921
379.00   3.58219252   0.01151000
380.00   3.58051544   0.01160127
381.00   3.57883396   0.01169302
382.00   3.57714808   0.01178525
383.00   3.57545781   0.01187796
384.00   3.57376314   0.01197116
385.00   3.57206408   0.01206484
386.00   3.57036062   0.01215901
387.00   3.56865277   0.01225367
388.00   3.56694052   0.01234882
389.00   3.56522388   0.01244446
390.00   3.56350284   0.01254059
391.00   3.56177741   0.01263721
392.00   3.56004759   0.01273433
393.00   3.55831337   0.01283194
394.00   3.55657476   0.01293005
395.00   3.55483175   0.01302866
396.00   3.55308436   0.01312777
397.00   3.55133257   0.01322738
398.00   3.54957638   0.01332749
399.00   3.54781581   0.01342810
400.00   3.54605084   0.01352922
401.00   3.54428148   0.01363085
402.00   3.54250773   0.01373298
403.00   3.54072958   0.01383561
404.00   3.53894705   0.01393876
405.00   3.53716012   0.01404242
406.00   3.53536881   0.01414659
407.00   3.53357310   0.01425127
408.00   3.53177300   0.01435647
409.00   3.52996851   0.01446219
410.00   3.52815963   0.01456842
411.00   3.52634636   0.01467516
412.00   3.52452870   0.01478243
413.00   3.52270665   0.01489022
414.00   3.52088021   0.01499853
415.00   3.51904938   0.01510736
416.00   3.51721416   0.01521672
417.00   3.51537455   0.01532661
418.00   3.51353055   0.01543702
419.00   3.51168217   0.01554796
420.00   3.50982940   0.01565942
421.00   3.50797224   0.01577142
422.00   3.50611069   0.01588395
423.00   3.50424475   0.01599702
424.00   3.50237442   0.01611061
425.00   3.50049971   0.01622475
426.00   3.49862061   0.01633942
427.00   3.49673713   0.01645463
428.00   3.49484925   0.01657038
429.00   3.49295700   0.01668666
430.00   3.49106035   0.01680349
431.00   3.48915932   0.01692087
432.00   3.48725390   0.01703879
433.00   3.48534410   0.01715725
434.00   3.48342991   0.01727626
435.00   3.48151133   0.01739582
436.00   3.47958837   0.01751593
437.00   3.47766103   0.01763659
438.00   3.47572930   0.01775780
439.00   3.47379319   0.01787956
440.00   3.47185269   0.01800188
441.00   3.46990781   0.01812475
442.00   3.46795854   0.01824818
443.00   3.46600489   0.01837217
444.00   3.46404686   0.01849672
445.00   3.46208444   0.01862183
446.00   3.46011765   0.01874750
447.00   3.45814646   0.01887373
448.00   3.45617090   0.01900053
449.00   3.45419095   0.01912789
450.00   3.45220663   0.01925582
451.00   3.45021792   0.01938432
452.00   3.44822482   0.01951339
453.00   3.44622735   0.01964303
454.00   3.44422549   0.01977324
455.00   3.44221926   0.01990402
456.00   3.44020864   0.02003538
457.00   3.43819365   0.02016731
458.00   3.43617427   0.02029982
459.00   3.43415051   0.02043291
460.00   3.43212237   0.02056658
461.00   3.43008986   0.02070083
462.00   3.42805296   0.02083566
463.00   3.42601168   0.02097107
464.00   3.42396603   0.02110707
465.00   3.42191599   0.02124365
466.00   3.41986158   0.02138082
467.00   3.41780279   0.02151857
468.00   3.41573962   0.02165692
469.00   3.41367207   0.02179586
470.00   3.41160015   0.02193539
471.00   3.40952385   0.02207551
472.00   3.40744317   0.02221623
473.00   3.40535811   0.02235754
474.00   3.40326868   0.02249945
475.00   3.40117487   0.02264195
476.00   3.39907668   0.02278506
477.00   3.39697412   0.02292876
478.00   3.39486718   0.02307307
479.00   3.39275587   0.02321798
480.00   3.39064018   0.02336350
481.00   3.38852012   0.02350962
482.00   3.38639568   0.02365634
483.00   3.38426686   0.02380368
484.00   3.38213367   0.02395162
485.00   3.37999611   0.02410018
486.00   3.37785417   0.02424935
487.00   3.37570786   0.02439912
488.00   3.37355718   0.02454952
489.00   3.37140212   0.02470053
490.00   3.36924269   0.02485215
491.00   3.36707889   0.02500440
492.00   3.36491071   0.02515726
493.00   3.36273816   0.02531074
494.00   3.36056124   0.02546484
495.00   3.35837995   0.02561957
496.00   3.35619429   0.02577492
497.00   3.35400425   0.02593090
498.00   3.35180984   0.02608750
499.00   3.34961107   0.02624473
500.00   3.34740792   0.02640259
501.00   3.34520040   0.02656108
502.00   3.34298851   0.02672021
503.00   3.34077225   0.02687996
504.00   3.33855162   0.02704035
505.00   3.33632662   0.02720137
506.00   3.33409725   0.02736303
507.00   3.33186352   0.02752533
508.00   3.32962541   0.02768827
509.00   3.32738294   0.02785185
510.00   3.32513609   0.02801607
511.00   3.32288488   0.02818093
512.00   3.32062931   0.02834643
513.00   3.31836936   0.02851258
514.00   3.31610505   0.02867938
515.00   3.31383637   0.02884683
516.00   3.31156332   0.02901492
517.00   3.30928591   0.02918366
518.00   3.30700413   0.02935306
519.00   3.30471798   0.02952311
520.00   3.30242747   0.02969381
521.00   3.30013259   0.02986517
522.00   3.29783335   0.03003718
523.00   3.29552974   0.03020985
524.00   3.29322177   0.03038318
525.00   3.29090943   0.03055717
526.00   3.28859273   0.03073182
527.00   3.28627166   0.03090713
528.00   3.28394623   0.03108311
529.00   3.28161644   0.03125975
530.00   3.27928228   0.03143706
531.00   3.27694376   0.03161504
532.00   3.27460088   0.03179368
533.00   3.27225363   0.03197300
534.00   3.26990203   0.03215298
535.00   3.26754606   0.03233364
536.00   3.26518573   0.03251497
537.00   3.26282103   0.03269698
538.00   3.26045198   0.03287966
539.00   3.25807856   0.03306302
540.00   3.25570079   0.03324706
541.00   3.25331865   0.03343178
542.00   3.25093215   0.03361718
543.00   3.24854130   0.03380327
544.00   3.24614608   0.03399003
545.00   3.24374651   0.03417748
546.00   3.24134257   0.03436562
547.00   3.23893428   0.03455444
548.00   3.23652162   0.03474396
549.00   3.23410461   0.03493416
550.00   3.23168324   0.03512505
551.00   3.22925752   0.03531664
552.00   3.22682743   0.03550892
553.00   3.22439299   0.03570189
554.00   3.22195419   0.03589556
555.00   3.21951104   0.03608993
556.00   3.21706352   0.03628499
557.00   3.21461165   0.03648076
558.00   3.21215543   0.03667722
559.00   3.20969485   0.03687439
560.00   3.20722991   0.03707226
561.00   3.20476062   0.03727084
562.00   3.20228697   0.03747012
563.00   3.19980897   0.03767011
564.00   3.19732662   0.03787081
565.00   3.19483991   0.03807221
566.00   3.19234884   0.03827433
567.00   3.18985343   0.03847716
568.00   3.18735366   0.03868070
569.00   3.18484953   0.03888496
570.00   3.18234105   0.03908993
571.00   3.17982823   0.03929562
572.00   3.17731104   0.03950203
573.00   3.17478951   0.03970915
574.00   3.17226363   0.03991700
575.00   3.16973339   0.04012557
576.00   3.16719880   0.04033486
577.00   3.16465986   0.04054488
578.00   3.16211657   0.04075562
579.00   3.15956893   0.04096709
580.00   3.15701695   0.04117929
581.00   3.15446061   0.04139221
582.00   3.15189992   0.04160587
583.00   3.14933488   0.04182026
584.00   3.14676549   0.04203538
585.00   3.14419176   0.04225124
586.00   3.14161367   0.04246783
587.00   3.13903124   0.04268516
588.00   3.13644446   0.04290322
589.00   3.13385333   0.04312202
590.00   3.13125786   0.04334157
591.00   3.12865803   0.04356186
592.00   3.12605387   0.04378289
593.00   3.12344535   0.04400466
594.00   3.12083249   0.04422718
595.00   3.11821528   0.04445044
596.00   3.11559373   0.04467445
597.00   3.11296783   0.04489922
598.00   3.11033759   0.04512473
599.00   3.10770300   0.04535099
600.00   3.10506407   0.04557800
601.00   3.10242079   0.04580577
602.00   3.09977317   0.04603430
603.00   3.09712121   0.04626358
604.00   3.09446490   0.04649362
605.00   3.09180425   0.04672441
606.00   3.08913926   0.04695597
607.00   3.08646993   0.04718829
608.00   3.08379625   0.04742137
609.00   3.08111823   0.04765521
610.00   3.07843587   0.04788982
611.00   3.07574917   0.04812520
612.00   3.07305812   0.04836134
613.00   3.07036274   0.04859825
614.00   3.06766302   0.04883593
615.00   3.06495895   0.04907439
616.00   3.06225055   0.04931361
617.00   3.05953781   0.04955361
618.00   3.05682072   0.04979438
619.00   3.05409930   0.05003593
620.00   3.05137354   0.05027825
621.00   3.04864344   0.05052136
622.00   3.04590901   0.05076524
623.00   3.04317023   0.05100991
624.00   3.04042712   0.05125535
625.00   3.03767967   0.05150158
626.00   3.03492789   0.05174860
627.00   3.03217176   0.05199640
628.00   3.02941131   0.05224498
629.00   3.02664651   0.05249436
630.00   3.02387738   0.05274452
631.00   3.02110392   0.05299548
632.00   3.01832612   0.05324723
633.00   3.01554398   0.05349977
634.00   3.01275751   0.05375310
635.00   3.00996671   0.05400723
636.00   3.00717157   0.05426216
637.00   3.00437210   0.05451788
638.00   3.00156830   0.05477441
639.00   2.99876016   0.05503173
640.00   2.99594769   0.05528986
641.00   2.99313089   0.05554879
642.00   2.99030975   0.05580852
643.00   2.98748429   0.05606906
644.00   2.98465449   0.05633040
645.00   2.98182036   0.05659256
646.00   2.97898190   0.05685552
647.00   2.97613911   0.05711929
648.00   2.97329199   0.05738387
649.00   2.97044054   0.05764927
650.00   2.96758477   0.05791548
651.00   2.96472466   0.05818250
652.00   2.96186022   0.05845035
653.00   2.95899145   0.05871900
654.00   2.95611836   0.05898848
655.00   2.95324094   0.05925878
656.00   2.95035919   0.05952990
657.00   2.94747311   0.05980184
658.00   2.94458271   0.06007461
659.00   2.94168797   0.06034820
660.00   2.93878892   0.06062261
661.00   2.93588553   0.06089785
662.00   2.93297782   0.06117393
663.00   2.93006579   0.06145083
664.00   2.92714943   0.06172856
665.00   2.92422874   0.06200713
666.00   2.92130373   0.06228652
667.00   2.91837440   0.06256676
668.00   2.91544074   0.06284783
669.00   2.91250276   0.06312973
670.00   2.90956046   0.06341248
671.00   2.90661383   0.06369606
672.00   2.90366288   0.06398048
673.00   2.90070761   0.06426575
674.00   2.89774801   0.06455186
675.00   2.89478410   0.06483881
676.00   2.89181586   0.06512661
677.00   2.88884330   0.06541526
678.00   2.88586642   0.06570475
679.00   2.88288522   0.06599510
680.00   2.87989970   0.06628629
681.00   2.87690986   0.06657834
682.00   2.87391570   0.06687124
683.00   2.87091722   0.06716499
684.00   2.86791443   0.06745960
685.00   2.86490731   0.06775506
686.00   2.86189588   0.06805138
687.00   2.85888013   0.06834857
688.00   2.85586006   0.06864661
689.00   2.85283567   0.06894551
690.00   2.84980697   0.06924528
691.00   2.84677395   0.06954591
692.00   2.84373661   0.06984740
693.00   2.84069496   0.07014976
694.00   2.83764900   0.07045299
695.00   2.83459871   0.07075709
696.00   2.83154412   0.07106206
697.00   2.82848521   0.07136789
698.00   2.82542198   0.07167461
699.00   2.82235444   0.07198219
700.00   2.81928259   0.07229065
701.00   2.81620642   0.07259998
702.00   2.81312594   0.07291020
703.00   2.81004115   0.07322129
704.00   2.80695205   0.07353326
705.00   2.80385863   0.07384611
706.00   2.80076091   0.07415984
707.00   2.79765887   0.07447446
708.00   2.79455252   0.07478996
709.00   2.79144186   0.07510635
710.00   2.78832689   0.07542362
711.00   2.78520761   0.07574178
712.00   2.78208402   0.07606084
713.00   2.77895612   0.07638078
714.00   2.77582392   0.07670161
715.00   2.77268740   0.07702334
716.00   2.76954658   0.07734596
717.00   2.76640144   0.07766948
718.00   2.76325200   0.07799389
719.00   2.76009826   0.07831920
720.00   2.75694021   0.07864541
721.00   2.75377785   0.07897252
722.00   2.75061118   0.07930053
723.00   2.74744021   0.07962945
724.00   2.74426493   0.07995926
725.00   2.74108535   0.08028999
726.00   2.73790146   0.08062162
727.00   2.73471327   0.08095416
728.00   2.73152078   0.08128760
729.00   2.72832398   0.08162196
730.00   2.72512288   0.08195722
731.00   2.72191747   0.08229340
732.00   2.71870776   0.08263050
733.00   2.71549375   0.08296850
734.00   2.71227544   0.08330743
735.00   2.70905283   0.08364727
736.00   2.70582591   0.08398803
737.00   2.70259470   0.08432971
738.00   2.69935918   0.08467231
739.00   2.69611936   0.08501583
740.00   2.69287525   0.08536028
741.00   2.68962683   0.08570565
742.00   2.68637411   0.08605194
743.00   2.68311710   0.08639916
744.00   2.67985579   0.08674731
745.00   2.67659018   0.08709639
746.00   2.67332027   0.08744640
747.00   2.67004606   0.08779735
748.00   2.66676756   0.08814922
749.00   2.66348476   0.08850203
750.00   2.66019766   0.08885577
751.00   2.65690627   0.08921045
752.00   2.65361058   0.08956607
753.00   2.65031060   0.08992263
754.00   2.64700632   0.09028013
755.00   2.64369775   0.09063857
756.00   2.64038488   0.09099795
757.00   2.63706772   0.09135827
758.00   2.63374626   0.09171954
759.00   2.63042052   0.09208176
760.00   2.62709048   0.09244492
761.00   2.62375614   0.09280903
762.00   2.62041752   0.09317410
763.00   2.61707460   0.09354011
764.00   2.61372739   0.09390707
765.00   2.61037589   0.09427499
766.00   2.60702010   0.09464387
767.00   2.60366002   0.09501370
768.00   2.60029565   0.09538448
769.00   2.59692700   0.09575623
770.00   2.59355405   0.09612893
771.00   2.59017681   0.09650259
772.00   2.58679528   0.09687722
773.00   2.58340947   0.09725281
774.00   2.58001937   0.09762936
775.00   2.57662498   0.09800688
776.00   2.57322630   0.09838537
777.00   2.56982334   0.09876482
778.00   2.56641609   0.09914524
779.00   2.56300456   0.09952663
780.00   2.55958874   0.09990900
781.00   2.55616863   0.10029233
782.00   2.55274424   0.10067665
783.00   2.54931556   0.10106193
784.00   2.54588261   0.10144819
785.00   2.54244536   0.10183543
786.00   2.53900384   0.10222365
787.00   2.53555803   0.10261285
788.00   2.53210794   0.10300303
789.00   2.52865356   0.10339419
790.00   2.52519491   0.10378633
791.00   2.52173197   0.10417946
792.00   2.51826475   0.10457357
793.00   2.51479326   0.10496868
794.00   2.51131748   0.10536477
795.00   2.50783742   0.10576185
796.00   2.50435308   0.10615992
797.00   2.50086446   0.10655898
798.00   2.49737156   0.10695903
799.00   2.49387439   0.10736008
800.00   2.49037294   0.10776213
801.00   2.48686721   0.10816517
802.00   2.48335720   0.10856921
803.00   2.47984291   0.10897424
804.00   2.47632435   0.10938028
805.00   2.47280151   0.10978732
806.00   2.46927440   0.11019536
807.00   2.46574301   0.11060441
808.00   2.46220735   0.11101446
809.00   2.45866741   0.11142552
810.00   2.45512319   0.11183758
811.00   2.45157471   0.11225066
812.00   2.44802195   0.11266474
813.00   2.44446491   0.11307983
814.00   2.44090361   0.11349594
815.00   2.43733803   0.11391306
816.00   2.43376818   0.11433119
817.00   2.43019405   0.11475034
818.00   2.42661566   0.11517051
819.00   2.42303300   0.11559169
820.00   2.41944606   0.11601390
821.00   2.41585486   0.11643712
822.00   2.41225938   0.11686137
823.00   2.40865964   0.11728664
824.00   2.40505562   0.11771293
825.00   2.40144734   0.11814025
826.00   2.39783479   0.11856860
827.00   2.39421798   0.11899797
828.00   2.39059689   0.11942837
829.00   2.38697154   0.11985980
830.00   2.38334192   0.12029227
831.00   2.37970804   0.12072576
832.00   2.37606989   0.12116029
833.00   2.37242747   0.12159586
834.00   2.36878079   0.12203246
835.00   2.36512984   0.12247009
836.00   2.36147463   0.12290877
837.00   2.35781516   0.12334849
838.00   2.35415142   0.12378924
839.00   2.35048342   0.12423104
840.00   2.34681116   0.12467388
841.00   2.34313464   0.12511777
842.00   2.33945385   0.12556270
843.00   2.33576880   0.12600868
844.00   2.33207949   0.12645570
845.00   2.32838592   0.12690378
846.00   2.32468809   0.12735290
847.00   2.32098600   0.12780308
848.00   2.31727965   0.12825431
849.00   2.31356904   0.12870659
850.00   2.30985418   0.12915993
851.00   2.30613505   0.12961433
852.00   2.30241167   0.13006978
853.00   2.29868403   0.13052629
854.00   2.29495213   0.13098386
855.00   2.29121597   0.13144249
856.00   2.28747556   0.13190219
857.00   2.28373090   0.13236295
858.00   2.27998197   0.13282477
859.00   2.27622880   0.13328766
860.00   2.27247136   0.13375161
861.00   2.26870968   0.13421663
862.00   2.26494374   0.13468273
863.00   2.26117354   0.13514989
864.00   2.25739910   0.13561812
865.00   2.25362040   0.13608743
866.00   2.24983744   0.13655781
867.00   2.24605024   0.13702927
868.00   2.24225879   0.13750180
869.00   2.23846308   0.13797541
870.00   2.23466312   0.13845010
871.00   2.23085892   0.13892587
872.00   2.22705046   0.13940272
873.00   2.22323775   0.13988066
874.00   2.21942080   0.14035967
875.00   2.21559959   0.14083978
876.00   2.21177414   0.14132096
877.00   2.20794444   0.14180324
878.00   2.20411049   0.14228660
879.00   2.20027230   0.14277105
880.00   2.19642986   0.14325660
881.00   2.19258317   0.14374323
882.00   2.18873224   0.14423096
883.00   2.18487706   0.14471978
884.00   2.18101764   0.14520970
885.00   2.17715397   0.14570071
886.00   2.17328606   0.14619282
887.00   2.16941391   0.14668603
888.00   2.16553751   0.14718034
889.00   2.16165687   0.14767576
890.00   2.15777199   0.14817227
891.00   2.15388286   0.14866989
892.00   2.14998950   0.14916861
893.00   2.14609189   0.14966844
894.00   2.14219004   0.15016938
895.00   2.13828395   0.15067142
896.00   2.13437362   0.15117457
897.00   2.13045905   0.15167884
898.00   2.12654025   0.15218421
899.00   2.12261720   0.15269070
900.00   2.11868992   0.15319831
901.00   2.11475840   0.15370703
902.00   2.11082264   0.15421686
903.00   2.10688264   0.15472782
904.00   2.10293841   0.15523989
905.00   2.09898994   0.15575308
906.00   2.09503724   0.15626740
907.00   2.09108030   0.15678283
908.00   2.08711912   0.15729939
909.00   2.08315371   0.15781708
910.00   2.07918407   0.15833589
911.00   2.07521019   0.15885583
912.00   2.07123209   0.15937690
913.00   2.06724974   0.15989909
914.00   2.06326317   0.16042242
915.00   2.05927236   0.16094688
916.00   2.05527733   0.16147247
917.00   2.05127806   0.16199920
918.00   2.04727456   0.16252706
919.00   2.04326683   0.16305606
920.00   2.03925487   0.16358620
921.00   2.03523868   0.16411747
922.00   2.03121826   0.16464989
923.00   2.02719362   0.16518344
924.00   2.02316475   0.16571814
925.00   2.01913164   0.16625399
926.00   2.01509432   0.16679097
927.00   2.01105276   0.16732911
928.00   2.00700698   0.16786839
929.00   2.00295697   0.16840882
930.00   1.99890274   0.16895040
931.00   1.99484428   0.16949313
932.00   1.99078160   0.17003701
933.00   1.98671470   0.17058204
934.00   1.98264357   0.17112823
935.00   1.97856822   0.17167558
936.00   1.97448864   0.17222408
937.00   1.97040484   0.17277374
938.00   1.96631682   0.17332455
939.00   1.96222458   0.17387653
940.00   1.95812812   0.17442967
941.00   1.95402744   0.17498397
942.00   1.94992253   0.17553944
943.00   1.94581341   0.17609607
944.00   1.94170007   0.17665386
945.00   1.93758251   0.17721282
946.00   1.93346073   0.17777296
947.00   1.92933473   0.17833426
948.00   1.92520452   0.17889673
949.00   1.92107009   0.17946037
950.00   1.91693144   0.18002519
951.00   1.91278857   0.18059118
952.00   1.90864149   0.18115834
953.00   1.90449020   0.18172668
954.00   1.90033469   0.18229620
955.00   1.89617496   0.18286690
956.00   1.89201103   0.18343878
957.00   1.88784287   0.18401184
958.00   1.88367051   0.18458608
959.00   1.87949393   0.18516150
960.00   1.87531314   0.18573811
961.00   1.87112814   0.18631591
962.00   1.86693893   0.18689489
963.00   1.86274550   0.18747506
964.00   1.85854787   0.18805642
965.00   1.85434602   0.18863897
966.00   1.85013997   0.18922271
967.00   1.84592971   0.18980765
968.00   1.84171524   0.19039378
969.00   1.83749656   0.19098110
970.00   1.83327367   0.19156962
971.00   1.82904657   0.19215934
972.00   1.82481527   0.19275025
973.00   1.82057977   0.19334237
974.00   1.81634005   0.19393569
975.00   1.81209613   0.19453021
976.00   1.80784801   0.19512593
977.00   1.80359568   0.19572286
978.00   1.79933915   0.19632099
979.00   1.79507841   0.19692033
980.00   1.79081347   0.19752087
981.00   1.78654433   0.19812263
982.00   1.78227099   0.19872560
983.00   1.77799344   0.19932977
984.00   1.77371169   0.19993516
985.00   1.76942575   0.20054177
986.00   1.76513560   0.20114959
987.00   1.76084125   0.20175862
988.00   1.75654270   0.20236887
989.00   1.75223995   0.20298034
990.00   1.74793301   0.20359303
991.00   1.74362186   0.20420694
992.00   1.73930652   0.20482208
993.00   1.73498698   0.20543843
994.00   1.73066325   0.20605601
995.00   1.72633532   0.20667482
996.00   1.72200319   0.20729485
997.00   1.71766687   0.20791611
998.00   1.71332635   0.20853860
999.00   1.70898164   0.20916231
1000.00   1.70463273   0.20978726
1001.00   1.70027963   0.21041345
1002.00   1.69592234   0.21104086
1003.00   1.69156085   0.21166951
1004.00   1.68719517   0.21229940
1005.00   1.68282530   0.21293052
1006.00   1.67845124   0.21356288
1007.00   1.67407299   0.21419648
1008.00   1.66969055   0.21483132
1009.00   1.66530392   0.21546740
1010.00   1.66091310   0.21610472
1011.00   1.65651809   0.21674329
1012.00   1.65211889   0.21738310
1013.00   1.64771551   0.21802416
1014.00   1.64330793   0.21866647
1015.00   1.63889617   0.21931002
1016.00   1.63448023   0.21995483
1017.00   1.63006009   0.22060088
1018.00   1.62563577   0.22124819
1019.00   1.62120727   0.22189675
1020.00   1.61677458   0.22254657
1021.00   1.61233771   0.22319764
1022.00   1.60789665   0.22384996
1023.00   1.60345142   0.22450355
1024.00   1.59900199   0.22515839
1025.00   1.59454839   0.22581449
1026.00   1.59009060   0.22647186
1027.00   1.58562864   0.22713048
1028.00   1.58116249   0.22779037
1029.00   1.57669216   0.22845153
1030.00   1.57221765   0.22911395
1031.00   1.56773896   0.22977764
1032.00   1.56325610   0.23044259
1033.00   1.55876905   0.23110882
1034.00   1.55427783   0.23177631
1035.00   1.54978243   0.23244508
1036.00   1.54528285   0.23311512
1037.00   1.54077910   0.23378643
1038.00   1.53627117   0.23445902
1039.00   1.53175906   0.23513288
1040.00   1.52724278   0.23580802
1041.00   1.52272233   0.23648444
1042.00   1.51819770   0.23716214
1043.00   1.51366889   0.23784112
1044.00   1.50913592   0.23852138
1045.00   1.50459877   0.23920293
1046.00   1.50005745   0.23988576
1047.00   1.49551195   0.24056987
1048.00   1.49096229   0.24125527
1049.00   1.48640845   0.24194196
1050.00   1.48185045   0.24262994
1051.00   1.47728827   0.24331921
1052.00   1.47272193   0.24400976
1053.00   1.46815142   0.24470162
1054.00   1.46357673   0.24539476
1055.00   1.45899788   0.24608920
1056.00   1.45441487   0.24678493
1057.00   1.44982768   0.24748196
1058.00   1.44523633   0.24818029
1059.00   1.44064082   0.24887992
1060.00   1.43604114   0.24958085
1061.00   1.43143729   0.25028307
1062.00   1.42682928   0.25098661
1063.00   1.42221710   0.25169144
1064.00   1.41760077   0.25239758
1065.00   1.41298026   0.25310503
1066.00   1.40835560   0.25381378
1067.00   1.40372678   0.25452384
1068.00   1.39909379   0.25523521
1069.00   1.39445664   0.25594789
1070.00   1.38981533   0.25666189
1071.00   1.38516986   0.25737719
1072.00   1.38052023   0.25809381
1073.00   1.37586645   0.25881175
1074.00   1.37120850   0.25953100
1075.00   1.36654640   0.26025157
1076.00   1.36188014   0.26097345
1077.00   1.35720972   0.26169666
1078.00   1.35253514   0.26242119
1079.00   1.34785641   0.26314704
1080.00   1.34317353   0.26387421
1081.00   1.33848648   0.26460270
1082.00   1.33379529   0.26533253
1083.00   1.32909994   0.26606367
1084.00   1.32440043   0.26679615
1085.00   1.31969678   0.26752996
1086.00   1.31498897   0.26826509
1087.00   1.31027701   0.26900156
1088.00   1.30556089   0.26973935
1089.00   1.30084063   0.27047848
1090.00   1.29611621   0.27121895
1091.00   1.29138765   0.27196075
1092.00   1.28665493   0.27270389
1093.00   1.28191807   0.27344836
1094.00   1.27717706   0.27419418
1095.00   1.27243190   0.27494133
1096.00   1.26768259   0.27568983
1097.00   1.26292914   0.27643967
1098.00   1.25817154   0.27719085
1099.00   1.25340979   0.27794338
1100.00   1.24864390   0.27869725
1101.00   1.24387386   0.27945247
1102.00   1.23909967   0.28020904
1103.00   1.23432135   0.28096695
1104.00   1.22953888   0.28172622
1105.00   1.22475227   0.28248684
1106.00   1.21996151   0.28324881
1107.00   1.21516661   0.28401213
1108.00   1.21036757   0.28477681
1109.00   1.20556439   0.28554285
1110.00   1.20075707   0.28631024
1111.00   1.19594561   0.28707899
1112.00   1.19113001   0.28784910
1113.00   1.18631027   0.28862058
1114.00   1.18148640   0.28939341
1115.00   1.17665838   0.29016760
1116.00   1.17182623   0.29094316
1117.00   1.16698994   0.29172009
1118.00   1.16214951   0.29249838
1119.00   1.15730495   0.29327804
1120.00   1.15245626   0.29405907
1121.00   1.14760342   0.29484146
1122.00   1.14274646   0.29562523
1123.00   1.13788536   0.29641037
1124.00   1.13302012   0.29719688
1125.00   1.12815076   0.29798477
1126.00   1.12327726   0.29877403
1127.00   1.11839963   0.29956467
1128.00   1.11351787   0.30035668
1129.00   1.10863198   0.30115007
1130.00   1.10374195   0.30194485
1131.00   1.09884780   0.30274100
1132.00   1.09394952   0.30353854
1133.00   1.08904711   0.30433746
1134.00   1.08414057   0.30513776
1135.00   1.07922991   0.30593945
1136.00   1.07431511   0.30674253
1137.00   1.06939619   0.30754699
1138.00   1.06447315   0.30835285
1139.00   1.05954598   0.30916009
1140.00   1.05461468   0.30996872
1141.00   1.04967926   0.31077875
1142.00   1.04473972   0.31159017
1143.00   1.03979605   0.31240298
1144.00   1.03484826   0.31321719
1145.00   1.02989635   0.31403279
1146.00   1.02494031   0.31484980
1147.00   1.01998016   0.31566820
1148.00   1.01501588   0.31648800
1149.00   1.01004748   0.31730920
1150.00   1.00507496   0.31813181
1151.00   1.00009833   0.31895582
1152.00   0.99511757   0.31978123
1153.00   0.99013270   0.32060805
1154.00   0.98514371   0.32143628
1155.00   0.98015060   0.32226591
1156.00   0.97515337   0.32309696
1157.00   0.97015203   0.32392941
1158.00   0.96514658   0.32476327
1159.00   0.96013700   0.32559855
1160.00   0.95512332   0.32643524
1161.00   0.95010552   0.32727334
1162.00   0.94508360   0.32811287
1163.00   0.94005758   0.32895380
1164.00   0.93502744   0.32979616
1165.00   0.92999319   0.33063993
1166.00   0.92495483   0.33148513
1167.00   0.91991235   0.33233174
1168.00   0.91486577   0.33317978
1169.00   0.90981508   0.33402925
1170.00   0.90476028   0.33488013
1171.00   0.89970137   0.33573244
1172.00   0.89463835   0.33658618
1173.00   0.88957122   0.33744135
1174.00   0.88449999   0.33829795
1175.00   0.87942465   0.33915598
1176.00   0.87434520   0.34001544
1177.00   0.86926165   0.34087633
1178.00   0.86417399   0.34173865
1179.00   0.85908223   0.34260241
1180.00   0.85398637   0.34346761
1181.00   0.84888640   0.34433424
1182.00   0.84378233   0.34520231
1183.00   0.83867416   0.34607182
1184.00   0.83356188   0.34694277
1185.00   0.82844551   0.34781516
1186.00   0.82332503   0.34868900
1187.00   0.81820046   0.34956427
1188.00   0.81307178   0.35044100
1189.00   0.80793900   0.35131916
1190.00   0.80280213   0.35219878
1191.00   0.79766116   0.35307984
1192.00   0.79251609   0.35396236
1193.00   0.78736693   0.35484632
1194.00   0.78221366   0.35573173
1195.00   0.77705631   0.35661860
1196.00   0.77189485   0.35750692
1197.00   0.76672931   0.35839670
1198.00   0.76155967   0.35928793
1199.00   0.75638593   0.36018062
1200.00   0.75120810   0.36107477
1201.00   0.74602618   0.36197037
1202.00   0.74084017   0.36286744
1203.00   0.73565007   0.36376597
1204.00   0.73045587   0.36466596
1205.00   0.72525759   0.36556741
1206.00   0.72005521   0.36647033
1207.00   0.71484875   0.36737472
1208.00   0.70963820   0.36828057
1209.00   0.70442356   0.36918789
1210.00   0.69920483   0.37009668
1211.00   0.69398201   0.37100694
1212.00   0.68875511   0.37191867
1213.00   0.68352413   0.37283187
1214.00   0.67828905   0.37374655
1215.00   0.67304990   0.37466270
1216.00   0.66780665   0.37558033
1217.00   0.66255933   0.37649944
1218.00   0.65730792   0.37742002
1219.00   0.65205243   0.37834208
1220.00   0.64679286   0.37926562
1221.00   0.64152920   0.38019065
1222.00   0.63626147   0.38111716
1223.00   0.63098965   0.38204515
1224.00   0.62571375   0.38297462
1225.00   0.62043378   0.38390558
1226.00   0.61514973   0.38483803
1227.00   0.60986159   0.38577197
1228.00   0.60456939   0.38670739
1229.00   0.59927310   0.38764431
1230.00   0.59397274   0.38858271
1231.00   0.58866830   0.38952261
1232.00   0.58335978   0.39046400
1233.00   0.57804719   0.39140689
1234.00   0.57273053   0.39235128
1235.00   0.56740979   0.39329716
1236.00   0.56208498   0.39424453
1237.00   0.55675610   0.39519341
1238.00   0.55142315   0.39614379
1239.00   0.54608612   0.39709567
1240.00   0.54074502   0.39804905
1241.00   0.53539986   0.39900393
1242.00   0.53005062   0.39996032
1243.00   0.52469731   0.40091821
1244.00   0.51933994   0.40187762
1245.00   0.51397850   0.40283852
1246.00   0.50861299   0.40380094
1247.00   0.50324341   0.40476487
1248.00   0.49786977   0.40573031
1249.00   0.49249206   0.40669726
1250.00   0.48711028   0.40766573
1251.00   0.48172444   0.40863571
1252.00   0.47633454   0.40960720
1253.00   0.47094057   0.41058021
1254.00   0.46554254   0.41155474
1255.00   0.46014045   0.41253079
1256.00   0.45473429   0.41350836
1257.00   0.44932408   0.41448745
1258.00   0.44390980   0.41546806
1259.00   0.43849146   0.41645020
1260.00   0.43306907   0.41743386
1261.00   0.42764261   0.41841904
1262.00   0.42221210   0.41940575
1263.00   0.41677753   0.42039399
1264.00   0.41133890   0.42138376
1265.00   0.40589621   0.42237505
1266.00   0.40044947   0.42336788
1267.00   0.39499867   0.42436224
1268.00   0.38954382   0.42535814
1269.00   0.38408491   0.42635556
1270.00   0.37862195   0.42735453
1271.00   0.37315494   0.42835502
1272.00   0.36768387   0.42935706
1273.00   0.36220875   0.43036064
1274.00   0.35672958   0.43136575
1275.00   0.35124636   0.43237241
1276.00   0.34575909   0.43338060
1277.00   0.34026777   0.43439034
1278.00   0.33477240   0.43540163
1279.00   0.32927298   0.43641446
1280.00   0.32376951   0.43742883
1281.00   0.31826199   0.43844475
1282.00   0.31275043   0.43946223
1283.00   0.30723482   0.44048125
1284.00   0.30171517   0.44150182
1285.00   0.29619147   0.44252394
1286.00   0.29066372   0.44354762
1287.00   0.28513193   0.44457285
1288.00   0.27959610   0.44559963
1289.00   0.27405623   0.44662797
1290.00   0.26851231   0.44765787
1291.00   0.26296435   0.44868932
1292.00   0.25741235   0.44972234
1293.00   0.25185631   0.45075691
1294.00   0.24629623   0.45179305
1295.00   0.24073211   0.45283075
1296.00   0.23516395   0.45387001
1297.00   0.22959175   0.45491084
1298.00   0.22401551   0.45595323
1299.00   0.21843524   0.45699719
1300.00   0.21285093   0.45804272
1301.00   0.20726259   0.45908981
1302.00   0.20167021   0.46013848
1303.00   0.19607379   0.46118872
1304.00   0.19047334   0.46224053
1305.00   0.18486886   0.46329391
1306.00   0.17926034   0.46434887
1307.00   0.17364779   0.46540540
1308.00   0.16803121   0.46646351
1309.00   0.16241060   0.46752320
1310.00   0.15678596   0.46858447
1311.00   0.15115729   0.46964732
1312.00   0.14552459   0.47071174
1313.00   0.13988786   0.47177775
1314.00   0.13424710   0.47284535
1315.00   0.12860231   0.47391452
1316.00   0.12295350   0.47498528
1317.00   0.11730066   0.47605763
1318.00   0.11164379   0.47713157
1319.00   0.10598290   0.47820709
1320.00   0.10031798   0.47928421
1321.00   0.09464904   0.48036291
1322.00   0.08897608   0.48144321
1323.00   0.08329909   0.48252510
1324.00   0.07761808   0.48360858
1325.00   0.07193305   0.48469366
1326.00   0.06624399   0.48578033
1327.00   0.06055092   0.48686860
1328.00   0.05485383   0.48795847
1329.00   0.04915272   0.48904994
1330.00   0.04344758   0.49014301
1331.00   0.03773843   0.49123768
1332.00   0.03202527   0.49233395
1333.00   0.02630808   0.49343183
1334.00   0.02058688   0.49453131
1335.00   0.01486166   0.49563240
1336.00   0.00913243   0.49673509
1337.00   0.00339919   0.49783939
1338.00  -0.00233807   0.49894530
1339.00  -0.00807935   0.50005282
1340.00  -0.01382464   0.50116196
1341.00  -0.01957394   0.50227270
1342.00  -0.02532725   0.50338506
1343.00  -0.03108457   0.50449903
1344.00  -0.03684590   0.50561461
1345.00  -0.04261124   0.50673182
1346.00  -0.04838060   0.50785064
1347.00  -0.05415396   0.50897108
1348.00  -0.05993132   0.51009314
1349.00  -0.06571270   0.51121682
1350.00  -0.07149808   0.51234212
1351.00  -0.07728747   0.51346904
1352.00  -0.08308087   0.51459759
1353.00  -0.08887827   0.51572776
1354.00  -0.09467967   0.51685956
1355.00  -0.10048508   0.51799299
1356.00  -0.10629449   0.51912805
1357.00  -0.11210790   0.52026473
1358.00  -0.11792532   0.52140305
1359.00  -0.12374673   0.52254299
1360.00  -0.12957215   0.52368457
1361.00  -0.13540157   0.52482778
1362.00  -0.14123499   0.52597263
1363.00  -0.14707241   0.52711911
1364.00  -0.15291382   0.52826723
1365.00  -0.15875923   0.52941699
1366.00  -0.16460864   0.53056839
1367.00  -0.17046205   0.53172142
1368.00  -0.17631945   0.53287610
1369.00  -0.18218085   0.53403242
1370.00  -0.18804624   0.53519038
1371.00  -0.19391563   0.53634999
1372.00  -0.19978901   0.53751124
1373.00  -0.20566638   0.53867414
1374.00  -0.21154775   0.53983869
1375.00  -0.21743310   0.54100488
1376.00  -0.22332245   0.54217273
1377.00  -0.22921579   0.54334222
1378.00  -0.23511312   0.54451337
1379.00  -0.24101444   0.54568617
1380.00  -0.24691974   0.54686062
1381.00  -0.25282904   0.54803673
1382.00  -0.25874232   0.54921449
1383.00  -0.26465959   0.55039391
1384.00  -0.27058084   0.55157499
1385.00  -0.27650608   0.55275773
1386.00  -0.28243530   0.55394213
1387.00  -0.28836851   0.55512819
1388.00  -0.29430571   0.55631591
1389.00  -0.30024688   0.55750530
1390.00  -0.30619204   0.55869635
1391.00  -0.31214118   0.55988906
1392.00  -0.31809430   0.56108344
1393.00  -0.32405140   0.56227949
1394.00  -0.33001248   0.56347721
1395.00  -0.33597754   0.56467660
1396.00  -0.34194658   0.56587766
1397.00  -0.34791960   0.56708039
1398.00  -0.35389660   0.56828479
1399.00  -0.35987757   0.56949087
1400.00  -0.36586252   0.57069862
1401.00  -0.37185144   0.57190805
1402.00  -0.37784434   0.57311916
1403.00  -0.38384121   0.57433194
1404.00  -0.38984206   0.57554640
1405.00  -0.39584688   0.57676255
1406.00  -0.40185567   0.57798037
1407.00  -0.40786844   0.57919988
1408.00  -0.41388517   0.58042107
1409.00  -0.41990588   0.58164395
1410.00  -0.42593056   0.58286851
1411.00  -0.43195920   0.58409475
1412.00  -0.43799182   0.58532269
1413.00  -0.44402840   0.58655231
1414.00  -0.45006895   0.58778363
1415.00  -0.45611347   0.58901663
1416.00  -0.46216195   0.59025133
1417.00  -0.46821440   0.59148772
1418.00  -0.47427081   0.59272580
1419.00  -0.48033119   0.59396558
1420.00  -0.48639553   0.59520705
1421.00  -0.49246384   0.59645022
1422.00  -0.49853611   0.59769509
1423.00  -0.50461234   0.59894166
1424.00  -0.51069253   0.60018993
1425.00  -0.51677668   0.60143990
1426.00  -0.52286479   0.60269158
1427.00  -0.52895686   0.60394495
1428.00  -0.53505289   0.60520004
1429.00  -0.54115288   0.60645682
1430.00  -0.54725682   0.60771532
1431.00  -0.55336472   0.60897552
1432.00  -0.55947658   0.61023743
1433.00  -0.56559239   0.61150105
1434.00  -0.57171216   0.61276638
1435.00  -0.57783588   0.61403342
1436.00  -0.58396356   0.61530217
1437.00  -0.59009519   0.61657264
1438.00  -0.59623077   0.61784482
1439.00  -0.60237030   0.61911872
1440.00  -0.60851379   0.62039434
1441.00  -0.61466122   0.62167168
1442.00  -0.62081261   0.62295073
1443.00  -0.62696794   0.62423150
1444.00  -0.63312722   0.62551400
1445.00  -0.63929045   0.62679822
1446.00  -0.64545763   0.62808416
1447.00  -0.65162875   0.62937183
1448.00  -0.65780382   0.63066122
1449.00  -0.66398284   0.63195233
1450.00  -0.67016580   0.63324518
1451.00  -0.67635270   0.63453975
1452.00  -0.68254355   0.63583606
1453.00  -0.68873834   0.63713409
1454.00  -0.69493707   0.63843385
1455.00  -0.70113975   0.63973535
1456.00  -0.70734636   0.64103858
1457.00  -0.71355692   0.64234355
1458.00  -0.71977141   0.64365025
1459.00  -0.72598984   0.64495869
1460.00  -0.73221222   0.64626887
1461.00  -0.73843853   0.64758079
1462.00  -0.74466877   0.64889444
1463.00  -0.75090295   0.65020984
1464.00  -0.75714107   0.65152698
1465.00  -0.76338313   0.65284586
1466.00  -0.76962911   0.65416649
1467.00  -0.77587904   0.65548886
1468.00  -0.78213289   0.65681298
1469.00  -0.78839068   0.65813884
1470.00  -0.79465240   0.65946646
1471.00  -0.80091805   0.66079582
1472.00  -0.80718763   0.66212693
1473.00  -0.81346114   0.66345980
1474.00  -0.81973858   0.66479441
1475.00  -0.82601995   0.66613078
1476.00  -0.83230525   0.66746891
1477.00  -0.83859447   0.66880879
1478.00  -0.84488762   0.67015043
1479.00  -0.85118470   0.67149382
1480.00  -0.85748570   0.67283898
1481.00  -0.86379063   0.67418589
1482.00  -0.87009948   0.67553456
1483.00  -0.87641225   0.67688500
1484.00  -0.88272895   0.67823720
1485.00  -0.88904957   0.67959116
1486.00  -0.89537411   0.68094688
1487.00  -0.90170257   0.68230438
1488.00  -0.90803495   0.68366364
1489.00  -0.91437125   0.68502466
1490.00  -0.92071147   0.68638746
1491.00  -0.92705561   0.68775203
1492.00  -0.93340367   0.68911837
1493.00  -0.93975564   0.69048647
1494.00  -0.94611153   0.69185636
1495.00  -0.95247133   0.69322801
1496.00  -0.95883505   0.69460145
1497.00  -0.96520269   0.69597665
1498.00  -0.97157423   0.69735364
1499.00  -0.97794969   0.69873240
1500.00  -0.98432907   0.70011295
1501.00  -0.99071235   0.70149527
1502.00  -0.99709954   0.70287937
1503.00  -1.00349065   0.70426526
1504.00  -1.00988566   0.70565293
1505.00  -1.01628459   0.70704238
1506.00  -1.02268742   0.70843362
1507.00  -1.02909416   0.70982665
1508.00  -1.03550481   0.71122146
1509.00  -1.04191936   0.71261807
1510.00  -1.04833782   0.71401646
1511.00  -1.05476018   0.71541664
1512.00  -1.06118645   0.71681861
1513.00  -1.06761662   0.71822238
1514.00  -1.07405070   0.71962794
1515.00  -1.08048868   0.72103529
1516.00  -1.08693056   0.72244444
1517.00  -1.09337634   0.72385539
1518.00  -1.09982602   0.72526814
1519.00  -1.10627960   0.72668268
1520.00  -1.11273708   0.72809902
1521.00  -1.11919846   0.72951717
1522.00  -1.12566373   0.73093711
1523.00  -1.13213290   0.73235886
1524.00  -1.13860597   0.73378241
1525.00  -1.14508294   0.73520777
1526.00  -1.15156380   0.73663493
1527.00  -1.15804855   0.73806390
1528.00  -1.16453720   0.73949468
1529.00  -1.17102974   0.74092727
1530.00  -1.17752618   0.74236166
1531.00  -1.18402650   0.74379787
1532.00  -1.19053072   0.74523589
1533.00  -1.19703882   0.74667572
1534.00  -1.20355082   0.74811737
1535.00  -1.21006671   0.74956083
1536.00  -1.21658648   0.75100611
1537.00  -1.22311014   0.75245320
1538.00  -1.22963769   0.75390211
1539.00  -1.23616913   0.75535285
1540.00  -1.24270445   0.75680540
1541.00  -1.24924365   0.75825977
1542.00  -1.25578674   0.75971597
1543.00  -1.26233372   0.76117398
1544.00  -1.26888458   0.76263383
1545.00  -1.27543932   0.76409549
1546.00  -1.28199794   0.76555899
1547.00  -1.28856044   0.76702431
1548.00  -1.29512682   0.76849146
1549.00  -1.30169708   0.76996044
1550.00  -1.30827123   0.77143124
1551.00  -1.31484924   0.77290388
1552.00  -1.32143114   0.77437836
1553.00  -1.32801692   0.77585466
1554.00  -1.33460657   0.77733280
1555.00  -1.34120009   0.77881278
1556.00  -1.34779749   0.78029459
1557.00  -1.35439877   0.78177824
1558.00  -1.36100392   0.78326372
1559.00  -1.36761294   0.78475105
1560.00  -1.37422583   0.78624022
1561.00  -1.38084260   0.78773122
1562.00  -1.38746324   0.78922407
1563.00  -1.39408774   0.79071877
1564.00  -1.40071612   0.79221531
1565.00  -1.40734836   0.79371369
1566.00  -1.41398448   0.79521392
1567.00  -1.42062446   0.79671600
1568.00  -1.42726830   0.79821992
1569.00  -1.43391602   0.79972570
1570.00  -1.44056760   0.80123332
1571.00  -1.44722304   0.80274280
1572.00  -1.45388235   0.80425413
1573.00  -1.46054552   0.80576731
1574.00  -1.46721255   0.80728235
1575.00  -1.47388345   0.80879924
1576.00  -1.48055821   0.81031799
1577.00  -1.48723682   0.81183860
1578.00  -1.49391930   0.81336106
1579.00  -1.50060564   0.81488539
1580.00  -1.50729583   0.81641157
1581.00  -1.51398989   0.81793962
1582.00  -1.52068780   0.81946953
1583.00  -1.52738957   0.82100130
1584.00  -1.53409519   0.82253494
1585.00  -1.54080467   0.82407044
1586.00  -1.54751800   0.82560781
1587.00  -1.55423519   0.82714704
1588.00  -1.56095623   0.82868815
1589.00  -1.56768112   0.83023112
1590.00  -1.57440986   0.83177597
1591.00  -1.58114246   0.83332268
1592.00  -1.58787890   0.83487127
1593.00  -1.59461920   0.83642173
1594.00  -1.60136334   0.83797407
1595.00  -1.60811134   0.83952828
1596.00  -1.61486318   0.84108437
1597.00  -1.62161886   0.84264234
1598.00  -1.62837840   0.84420218
1599.00  -1.63514178   0.84576391
1600.00  -1.64190900   0.84732751
1601.00  -1.64868007   0.84889300
1602.00  -1.65545498   0.85046036
1603.00  -1.66223373   0.85202962
1604.00  -1.66901633   0.85360075
1605.00  -1.67580277   0.85517377
1606.00  -1.68259304   0.85674868
1607.00  -1.68938716   0.85832548
1608.00  -1.69618512   0.85990416
1609.00  -1.70298691   0.86148473
1610.00  -1.70979255   0.86306720
1611.00  -1.71660202   0.86465155
1612.00  -1.72341533   0.86623780
1613.00  -1.73023247   0.86782594
1614.00  -1.73705345   0.86941598
1615.00  -1.74387826   0.87100791
1616.00  -1.75070691   0.87260173
1617.00  -1.75753939   0.87419746
1618.00  -1.76437570   0.87579508
1619.00  -1.77121584   0.87739460
1620.00  -1.77805982   0.87899603
1621.00  -1.78490762   0.88059935
1622.00  -1.79175926   0.88220458
1623.00  -1.79861472   0.88381171
1624.00  -1.80547401   0.88542074
1625.00  -1.81233713   0.88703168
1626.00  -1.81920408   0.88864452
1627.00  -1.82607485   0.89025928
1628.00  -1.83294945   0.89187594
1629.00  -1.83982787   0.89349451
1630.00  -1.84671012   0.89511499
1631.00  -1.85359618   0.89673738
1632.00  -1.86048608   0.89836168
1633.00  -1.86737979   0.89998790
1634.00  -1.87427732   0.90161603
1635.00  -1.88117868   0.90324608
1636.00  -1.88808385   0.90487804
1637.00  -1.89499285   0.90651192
1638.00  -1.90190566   0.90814771
1639.00  -1.90882229   0.90978543
1640.00  -1.91574274   0.91142507
1641.00  -1.92266700   0.91306662
1642.00  -1.92959508   0.91471010
1643.00  -1.93652697   0.91635551
1644.00  -1.94346268   0.91800283
1645.00  -1.95040220   0.91965208
1646.00  -1.95734553   0.92130326
1647.00  -1.96429268   0.92295637
1648.00  -1.97124363   0.92461140
1649.00  -1.97819840   0.92626836
1650.00  -1.98515698   0.92792725
1651.00  -1.99211936   0.92958807
1652.00  -1.99908556   0.93125083
1653.00  -2.00605556   0.93291551
1654.00  -2.01302937   0.93458214
1655.00  -2.02000699   0.93625069
1656.00  -2.02698841   0.93792118
1657.00  -2.03397363   0.93959361
1658.00  -2.04096267   0.94126798
1659.00  -2.04795550   0.94294428
1660.00  -2.05495214   0.94462252
1661.00  -2.06195257   0.94630271
1662.00  -2.06895681   0.94798484
1663.00  -2.07596486   0.94966890
1664.00  -2.08297670   0.95135492
1665.00  -2.08999234   0.95304287
1666.00  -2.09701177   0.95473278
1667.00  -2.10403501   0.95642463
1668.00  -2.11106204   0.95811842
1669.00  -2.11809287   0.95981417
1670.00  -2.12512750   0.96151186
1671.00  -2.13216592   0.96321151
1672.00  -2.13920813   0.96491310
1673.00  -2.14625414   0.96661665
1674.00  -2.15330394   0.96832215
1675.00  -2.16035753   0.97002961
1676.00  -2.16741492   0.97173902
1677.00  -2.17447609   0.97345039
1678.00  -2.18154106   0.97516372
1679.00  -2.18860981   0.97687900
1680.00  -2.19568235   0.97859624
1681.00  -2.20275868   0.98031544
1682.00  -2.20983880   0.98203661
1683.00  -2.21692270   0.98375973
1684.00  -2.22401039   0.98548482
1685.00  -2.23110187   0.98721188
1686.00  -2.23819713   0.98894089
1687.00  -2.24529617   0.99067188
1688.00  -2.25239899   0.99240483
1689.00  -2.25950560   0.99413975
1690.00  -2.26661599   0.99587663
1691.00  -2.27373015   0.99761549
1692.00  -2.28084810   0.99935632
1693.00  -2.28796983   1.00109912
1694.00  -2.29509534   1.00284389
1695.00  -2.30222462   1.00459064
1696.00  -2.30935768   1.00633936
1697.00  -2.31649452   1.00809006
1698.00  -2.32363513   1.00984273
1699.00  -2.33077951   1.01159738
1700.00  -2.33792767   1.01335401
1701.00  -2.34507961   1.01511262
1702.00  -2.35223532   1.01687321
1703.00  -2.35939479   1.01863578
1704.00  -2.36655804   1.02040033
1705.00  -2.37372507   1.02216687
1706.00  -2.38089586   1.02393539
1707.00  -2.38807041   1.02570589
1708.00  -2.39524874   1.02747839
1709.00  -2.40243084   1.02925287
1710.00  -2.40961670   1.03102933
1711.00  -2.41680633   1.03280779
1712.00  -2.42399972   1.03458824
1713.00  -2.43119688   1.03637067
1714.00  -2.43839780   1.03815510
1715.00  -2.44560248   1.03994153
1716.00  -2.45281093   1.04172994
1717.00  -2.46002314   1.04352035
1718.00  -2.46723911   1.04531276
1719.00  -2.47445884   1.04710717
1720.00  -2.48168233   1.04890357
1721.00  -2.48890958   1.05070197
1722.00  -2.49614059   1.05250237
1723.00  -2.50337535   1.05430477
1724.00  -2.51061387   1.05610917
1725.00  -2.51785615   1.05791558
1726.00  -2.52510218   1.05972398
1727.00  -2.53235196   1.06153440
1728.00  -2.53960550   1.06334682
1729.00  -2.54686280   1.06516124
1730.00  -2.55412384   1.06697767
1731.00  -2.56138864   1.06879611
1732.00  -2.56865719   1.07061656
1733.00  -2.57592948   1.07243902
1734.00  -2.58320553   1.07426349
1735.00  -2.59048533   1.07608997
1736.00  -2.59776887   1.07791847
1737.00  -2.60505616   1.07974898
1738.00  -2.61234719   1.08158150
1739.00  -2.61964198   1.08341605
1740.00  -2.62694050   1.08525260
1741.00  -2.63424277   1.08709118
1742.00  -2.64154879   1.08893177
1743.00  -2.64885854   1.09077439
1744.00  -2.65617204   1.09261902
1745.00  -2.66348928   1.09446567
1746.00  -2.67081026   1.09631435
1747.00  -2.67813498   1.09816506
1748.00  -2.68546344   1.10001778
1749.00  -2.69279564   1.10187253
1750.00  -2.70013158   1.10372931
1751.00  -2.70747125   1.10558812
1752.00  -2.71481466   1.10744895
1753.00  -2.72216180   1.10931181
1754.00  -2.72951268   1.11117671
1755.00  -2.73686729   1.11304363
1756.00  -2.74422563   1.11491258
1757.00  -2.75158771   1.11678357
1758.00  -2.75895352   1.11865660
1759.00  -2.76632306   1.12053165
1760.00  -2.77369632   1.12240875
1761.00  -2.78107332   1.12428788
1762.00  -2.78845405   1.12616904
1763.00  -2.79583850   1.12805225
1764.00  -2.80322669   1.12993750
1765.00  -2.81061860   1.13182478
1766.00  -2.81801423   1.13371411
1767.00  -2.82541359   1.13560548
1768.00  -2.83281667   1.13749890
1769.00  -2.84022348   1.13939435
1770.00  -2.84763401   1.14129186
1771.00  -2.85504826   1.14319141
1772.00  -2.86246623   1.14509300
1773.00  -2.86988792   1.14699665
1774.00  -2.87731333   1.14890234
1775.00  -2.88474247   1.15081008
1776.00  -2.89217531   1.15271988
1777.00  -2.89961188   1.15463172
1778.00  -2.90705216   1.15654562
1779.00  -2.91449616   1.15846158
1780.00  -2.92194388   1.16037958
1781.00  -2.92939531   1.16229964
1782.00  -2.93685045   1.16422176
1783.00  -2.94430931   1.16614594
1784.00  -2.95177187   1.16807218
1785.00  -2.95923815   1.17000047
1786.00  -2.96670814   1.17193082
1787.00  -2.97418184   1.17386324
1788.00  -2.98165925   1.17579772
1789.00  -2.98914037   1.17773426
1790.00  -2.99662519   1.17967286
1791.00  -3.00411372   1.18161353
1792.00  -3.01160596   1.18355627
1793.00  -3.01910191   1.18550107
1794.00  -3.02660155   1.18744794
1795.00  -3.03410491   1.18939688
1796.00  -3.04161196   1.19134789
1797.00  -3.04912272   1.19330097
1798.00  -3.05663718   1.19525612
1799.00  -3.06415534   1.19721334
1800.00  -3.07167720   1.19917263
1801.00  -3.07920276   1.20113400
1802.00  -3.08673202   1.20309745
1803.00  -3.09426497   1.20506297
1804.00  -3.10180163   1.20703057
1805.00  -3.10934198   1.20900025
1806.00  -3.11688602   1.21097200
1807.00  -3.12443376   1.21294584
1808.00  -3.13198520   1.21492175
1809.00  -3.13954032   1.21689975
1810.00  -3.14709914   1.21887983
1811.00  -3.15466166   1.22086199
1812.00  -3.16222786   1.22284624
1813.00  -3.16979775   1.22483257
1814.00  -3.17737134   1.22682099
1815.00  -3.18494861   1.22881150
1816.00  -3.19252957   1.23080410
1817.00  -3.20011422   1.23279878
1818.00  -3.20770255   1.23479555
1819.00  -3.21529457   1.23679442
1820.00  -3.22289027   1.23879538
1821.00  -3.23048966   1.24079843
1822.00  -3.23809273   1.24280357
1823.00  -3.24569949   1.24481081
1824.00  -3.25330993   1.24682014
1825.00  -3.26092404   1.24883157
1826.00  -3.26854184   1.25084510
1827.00  -3.27616332   1.25286073
1828.00  -3.28378848   1.25487845
1829.00  -3.29141731   1.25689828
1830.00  -3.29904982   1.25892020
1831.00  -3.30668601   1.26094423
1832.00  -3.31432588   1.26297036
1833.00  -3.32196942   1.26499860
1834.00  -3.32961663   1.26702894
1835.00  -3.33726752   1.26906138
1836.00  -3.34492208   1.27109593
1837.00  -3.35258031   1.27313259
1838.00  -3.36024222   1.27517136
1839.00  -3.36790779   1.27721224
1840.00  -3.37557704   1.27925523
1841.00  -3.38324995   1.28130033
1842.00  -3.39092653   1.28334754
1843.00  -3.39860678   1.28539686
1844.00  -3.40629070   1.28744830
1845.00  -3.41397828   1.28950185
1846.00  -3.42166952   1.29155752
1847.00  -3.42936444   1.29361531
1848.00  -3.43706301   1.29567521
1849.00  -3.44476525   1.29773723
1850.00  -3.45247115   1.29980137
1851.00  -3.46018071   1.30186763
1852.00  -3.46789393   1.30393602
1853.00  -3.47561081   1.30600652
1854.00  -3.48333135   1.30807915
1855.00  -3.49105555   1.31015390
1856.00  -3.49878340   1.31223078
1857.00  -3.50651492   1.31430978
1858.00  -3.51425008   1.31639091
1859.00  -3.52198891   1.31847417
1860.00  -3.52973138   1.32055955
1861.00  -3.53747752   1.32264707
1862.00  -3.54522730   1.32473671
1863.00  -3.55298074   1.32682849
1864.00  -3.56073782   1.32892240
1865.00  -3.56849856   1.33101844
1866.00  -3.57626295   1.33311661
1867.00  -3.58403099   1.33521692
1868.00  -3.59180267   1.33731937
1869.00  -3.59957800   1.33942395
1870.00  -3.60735698   1.34153068
1871.00  -3.61513960   1.34363954
1872.00  -3.62292587   1.34575053
1873.00  -3.63071579   1.34786367
1874.00  -3.63850935   1.34997895
1875.00  -3.64630655   1.35209638
1876.00  -3.65410739   1.35421594
1877.00  -3.66191187   1.35633765
1878.00  -3.66971999   1.35846151
1879.00  -3.67753176   1.36058751
1880.00  -3.68534716   1.36271565
1881.00  -3.69316620   1.36484595
1882.00  -3.70098888   1.36697839
1883.00  -3.70881519   1.36911299
1884.00  -3.71664514   1.37124973
1885.00  -3.72447873   1.37338862
1886.00  -3.73231595   1.37552967
1887.00  -3.74015680   1.37767287
1888.00  -3.74800128   1.37981822
1889.00  -3.75584940   1.38196573
1890.00  -3.76370115   1.38411539
1891.00  -3.77155653   1.38626721
1892.00  -3.77941553   1.38842119
1893.00  -3.78727817   1.39057733
1894.00  -3.79514443   1.39273562
1895.00  -3.80301433   1.39489608
1896.00  -3.81088784   1.39705870
1897.00  -3.81876499   1.39922348
1898.00  -3.82664576   1.40139042
1899.00  -3.83453015   1.40355952
1900.00  -3.84241816   1.40573079
1901.00  -3.85030980   1.40790423
1902.00  -3.85820506   1.41007983
1903.00  -3.86610394   1.41225760
1904.00  -3.87400644   1.41443754
1905.00  -3.88191256   1.41661965
1906.00  -3.88982230   1.41880392
1907.00  -3.89773566   1.42099037
1908.00  -3.90565263   1.42317899
1909.00  -3.91357322   1.42536979
1910.00  -3.92149742   1.42756275
1911.00  -3.92942524   1.42975789
1912.00  -3.93735668   1.43195521
1913.00  -3.94529172   1.43415470
1914.00  -3.95323038   1.43635637
1915.00  -3.96117265   1.43856022
1916.00  -3.96911853   1.44076625
1917.00  -3.97706802   1.44297445
1918.00  -3.98502112   1.44518484
1919.00  -3.99297783   1.44739741
1920.00  -4.00093815   1.44961216
1921.00  -4.00890207   1.45182910
1922.00  -4.01686960   1.45404822
1923.00  -4.02484073   1.45626952
1924.00  -4.03281547   1.45849301
1925.00  -4.04079381   1.46071869
1926.00  -4.04877575   1.46294656
1927.00  -4.05676130   1.46517661
1928.00  -4.06475045   1.46740886
1929.00  -4.07274320   1.46964329
1930.00  -4.08073954   1.47187992
1931.00  -4.08873949   1.47411874
1932.00  -4.09674303   1.47635975
1933.00  -4.10475018   1.47860296
1934.00  -4.11276091   1.48084836
1935.00  -4.12077525   1.48309595
1936.00  -4.12879318   1.48534575
1937.00  -4.13681470   1.48759774
1938.00  -4.14483981   1.48985193
1939.00  -4.15286852   1.49210832
1940.00  -4.16090082   1.49436691
1941.00  -4.16893671   1.49662770
1942.00  -4.17697619   1.49889069
1943.00  -4.18501927   1.50115589
1944.00  -4.19306592   1.50342329
1945.00  -4.20111617   1.50569289
1946.00  -4.20917000   1.50796470
1947.00  -4.21722742   1.51023872
1948.00  -4.22528843   1.51251494
1949.00  -4.23335302   1.51479337
1950.00  -4.24142119   1.51707401
1951.00  -4.24949295   1.51935686
1952.00  -4.25756829   1.52164192
1953.00  -4.26564721   1.52392920
1954.00  -4.27372971   1.52621868
1955.00  -4.28181579   1.52851038
1956.00  -4.28990544   1.53080429
1957.00  -4.29799868   1.53310042
1958.00  -4.30609550   1.53539877
1959.00  -4.31419589   1.53769933
1960.00  -4.32229985   1.54000211
1961.00  -4.33040740   1.54230711
1962.00  -4.33851851   1.54461433
1963.00  -4.34663320   1.54692377
1964.00  -4.35475146   1.54923543
1965.00  -4.36287330   1.55154931
1966.00  -4.37099870   1.55386541
1967.00  -4.37912768   1.55618374
1968.00  -4.38726022   1.55850430
1969.00  -4.39539633   1.56082708
1970.00  -4.40353601   1.56315208
1971.00  -4.41167926   1.56547932
1972.00  -4.41982607   1.56780878
1973.00  -4.42797645   1.57014047
1974.00  -4.43613039   1.57247439
1975.00  -4.44428790   1.57481054
1976.00  -4.45244897   1.57714893
1977.00  -4.46061360   1.57948954
1978.00  -4.46878180   1.58183240
1979.00  -4.47695355   1.58417748
1980.00  -4.48512886   1.58652480
1981.00  -4.49330774   1.58887436
1982.00  -4.50149017   1.59122615
1983.00  -4.50967616   1.59358018
1984.00  -4.51786570   1.59593645
1985.00  -4.52605880   1.59829496
1986.00  -4.53425545   1.60065571
1987.00  -4.54245566   1.60301870
1988.00  -4.55065943   1.60538394
1989.00  -4.55886674   1.60775141
1990.00  -4.56707761   1.61012113
1991.00  -4.57529202   1.61249310
1992.00  -4.58350999   1.61486731
1993.00  -4.59173151   1.61724377
1994.00  -4.59995657   1.61962247
1995.00  -4.60818518   1.62200343
1996.00  -4.61641734   1.62438663
1997.00  -4.62465305   1.62677208
1998.00  -4.63289230   1.62915979
1999.00  -4.64113509   1.63154974
2000.00  -4.64938143   1.63394195
