wavelength(nm)         real         imag
200.00   3.80575269   0.00180124
201.00   3.80480821   0.00182838
202.00   3.80385903   0.00185580
203.00   3.80290514   0.00188349
204.00   3.80194655   0.00191146
205.00   3.80098325   0.00193970
206.00   3.80001525   0.00196822
207.00   3.79904255   0.00199701
208.00   3.79806515   0.00202609
209.00   3.79708304   0.00205544
210.00   3.79609623   0.00208508
211.00   3.79510472   0.00211500
212.00   3.79410850   0.00214521
213.00   3.79310758   0.00217570
214.00   3.79210196   0.00220648
215.00   3.79109164   0.00223754
216.00   3.79007662   0.00226890
217.00   3.78905689   0.00230055
218.00   3.78803246   0.00233249
219.00   3.78700333   0.00236473
220.00   3.78596950   0.00239726
221.00   3.78493097   0.00243009
222.00   3.78388773   0.00246322
223.00   3.78283979   0.00249665
224.00   3.78178716   0.00253037
225.00   3.78072982   0.00256440
226.00   3.77966778   0.00259874
227.00   3.77860104   0.00263338
228.00   3.77752959   0.00266832
229.00   3.77645345   0.00270357
230.00   3.77537261   0.00273913
231.00   3.77428707   0.00277501
232.00   3.77319682   0.00281119
233.00   3.77210188   0.00284769
234.00   3.77100223   0.00288450
235.00   3.76989789   0.00292162
236.00   3.76878885   0.00295907
237.00   3.76767510   0.00299683
238.00   3.76655666   0.00303491
239.00   3.76543352   0.00307331
240.00   3.76430567   0.00311204
241.00   3.76317313   0.00315109
242.00   3.76203589   0.00319046
243.00   3.76089395   0.00323016
244.00   3.75974732   0.00327019
245.00   3.75859598   0.00331055
246.00   3.75743994   0.00335124
247.00   3.75627921   0.00339225
248.00   3.75511378   0.00343361
249.00   3.75394365   0.00347530
250.00   3.75276882   0.00351732
251.00   3.75158929   0.00355968
252.00   3.75040507   0.00360238
253.00   3.74921615   0.00364542
254.00   3.74802253   0.00368880
255.00   3.74682421   0.00373252
256.00   3.74562119   0.00377659
257.00   3.74441348   0.00382100
258.00   3.74320107   0.00386576
259.00   3.74198397   0.00391087
260.00   3.74076217   0.00395632
261.00   3.73953567   0.00400213
262.00   3.73830447   0.00404829
263.00   3.73706858   0.00409480
264.00   3.73582799   0.00414167
265.00   3.73458271   0.00418889
266.00   3.73333273   0.00423647
267.00   3.73207805   0.00428441
268.00   3.73081868   0.00433271
269.00   3.72955461   0.00438137
270.00   3.72828585   0.00443039
271.00   3.72701239   0.00447978
272.00   3.72573424   0.00452953
273.00   3.72445139   0.00457965
274.00   3.72316384   0.00463013
275.00   3.72187161   0.00468099
276.00   3.72057467   0.00473222
277.00   3.71927305   0.00478382
278.00   3.71796673   0.00483579
279.00   3.71665571   0.00488814
280.00   3.71534000   0.00494086
281.00   3.71401960   0.00499396
282.00   3.71269450   0.00504744
283.00   3.71136471   0.00510131
284.00   3.71003023   0.00515555
285.00   3.70869105   0.00521017
286.00   3.70734718   0.00526518
287.00   3.70599862   0.00532058
288.00   3.70464536   0.00537636
289.00   3.70328741   0.00543253
290.00   3.70192477   0.00548909
291.00   3.70055743   0.00554604
292.00   3.69918541   0.00560338
293.00   3.69780869   0.00566112
294.00   3.69642728   0.00571925
295.00   3.69504118   0.00577777
296.00   3.69365038   0.00583670
297.00   3.69225490   0.00589602
298.00   3.69085472   0.00595575
299.00   3.68944985   0.00601587
300.00   3.68804029   0.00607640
301.00   3.68662604   0.00613734
302.00   3.68520710   0.00619867
303.00   3.68378347   0.00626042
304.00   3.68235515   0.00632257
305.00   3.68092214   0.00638514
306.00   3.67948444   0.00644811
307.00   3.67804205   0.00651150
308.00   3.67659496   0.00657530
309.00   3.67514319   0.00663952
310.00   3.67368673   0.00670415
311.00   3.67222558   0.00676920
312.00   3.67075974   0.00683467
313.00   3.66928922   0.00690056
314.00   3.66781400   0.00696687
315.00   3.66633409   0.00703360
316.00   3.66484950   0.00710076
317.00   3.66336022   0.00716835
318.00   3.66186624   0.00723636
319.00   3.66036759   0.00730480
320.00   3.65886424   0.00737367
321.00   3.65735620   0.00744297
322.00   3.65584348   0.00751270
323.00   3.65432607   0.00758287
324.00   3.65280398   0.00765347
325.00   3.65127719   0.00772451
326.00   3.64974572   0.00779599
327.00   3.64820957   0.00786790
328.00   3.64666872   0.00794026
329.00   3.64512319   0.00801306
330.00   3.64357298   0.00808630
331.00   3.64201807   0.00815998
332.00   3.64045849   0.00823411
333.00   3.63889421   0.00830869
334.00   3.63732525   0.00838372
335.00   3.63575161   0.00845920
336.00   3.63417328   0.00853512
337.00   3.63259026   0.00861150
338.00   3.63100256   0.00868834
339.00   3.62941018   0.00876563
340.00   3.62781311   0.00884338
341.00   3.62621136   0.00892158
342.00   3.62460492   0.00900024
343.00   3.62299380   0.00907937
344.00   3.62137799   0.00915895
345.00   3.61975750   0.00923900
346.00   3.61813233   0.00931951
347.00   3.61650248   0.00940049
348.00   3.61486794   0.00948194
349.00   3.61322872   0.00956386
350.00   3.61158481   0.00964624
351.00   3.60993623   0.00972910
352.00   3.60828296   0.00981243
353.00   3.60662501   0.00989623
354.00   3.60496237   0.00998051
355.00   3.60329506   0.01006526
356.00   3.60162306   0.01015049
357.00   3.59994639   0.01023621
358.00   3.59826503   0.01032240
359.00   3.59657899   0.01040907
360.00   3.59488826   0.01049623
361.00   3.59319286   0.01058387
362.00   3.59149278   0.01067200
363.00   3.58978802   0.01076062
364.00   3.58807857   0.01084972
365.00   3.58636445   0.01093931
366.00   3.58464565   0.01102940
367.00   3.58292217   0.01111998
368.00   3.58119401   0.01121105
369.00   3.57946116   0.01130262
370.00   3.57772364   0.01139468
371.00   3.57598145   0.01148724
372.00   3.57423457   0.01158030
373.00   3.57248301   0.01167386
374.00   3.57072678   0.01176793
375.00   3.56896587   0.01186249
376.00   3.56720028   0.01195756
377.00   3.56543001   0.01205314
378.00   3.56365506   0.01214923
379.00   3.56187544   0.01224582
380.00   3.56009114   0.01234292
381.00   3.55830216   0.01244054
382.00   3.55650851   0.01253866
383.00   3.55471018   0.01263731
384.00   3.55290718   0.01273646
385.00   3.55109949   0.01283613
386.00   3.54928713   0.01293633
387.00   3.54747010   0.01303704
388.00   3.54564839   0.01313827
389.00   3.54382201   0.01324002
390.00   3.54199095   0.01334230
391.00   3.54015521   0.01344510
392.00   3.53831480   0.01354842
393.00   3.53646972   0.01365228
394.00   3.53461996   0.01375666
395.00   3.53276553   0.01386157
396.00   3.53090642   0.01396702
397.00   3.52904264   0.01407299
398.00   3.52717419   0.01417950
399.00   3.52530106   0.01428655
400.00   3.52342326   0.01439413
401.00   3.52154079   0.01450225
402.00   3.51965364   0.01461091
403.00   3.51776182   0.01472011
404.00   3.51586533   0.01482985
405.00   3.51396417   0.01494014
406.00   3.51205833   0.01505097
407.00   3.51014783   0.01516234
408.00   3.50823265   0.01527427
409.00   3.50631280   0.01538674
410.00   3.50438828   0.01549976
411.00   3.50245909   0.01561333
412.00   3.50052523   0.01572746
413.00   3.49858670   0.01584214
414.00   3.49664349   0.01595737
415.00   3.49469562   0.01607316
416.00   3.49274308   0.01618951
417.00   3.49078587   0.01630642
418.00   3.48882399   0.01642389
419.00   3.48685744   0.01654192
420.00   3.48488622   0.01666051
421.00   3.48291033   0.01677967
422.00   3.48092977   0.01689940
423.00   3.47894455   0.01701969
424.00   3.47695466   0.01714055
425.00   3.47496010   0.01726198
426.00   3.47296087   0.01738398
427.00   3.47095697   0.01750655
428.00   3.46894841   0.01762970
429.00   3.46693518   0.01775342
430.00   3.46491729   0.01787772
431.00   3.46289472   0.01800260
432.00   3.46086749   0.01812806
433.00   3.45883560   0.01825409
434.00   3.45679904   0.01838071
435.00   3.45475781   0.01850792
436.00   3.45271192   0.01863570
437.00   3.45066136   0.01876407
438.00   3.44860614   0.01889303
439.00   3.44654625   0.01902258
440.00   3.44448170   0.01915272
441.00   3.44241249   0.01928345
442.00   3.44033861   0.01941477
443.00   3.43826006   0.01954668
444.00   3.43617685   0.01967919
445.00   3.43408898   0.01981230
446.00   3.43199645   0.01994601
447.00   3.42989925   0.02008031
448.00   3.42779739   0.02021521
449.00   3.42569087   0.02035072
450.00   3.42357969   0.02048683
451.00   3.42146384   0.02062354
452.00   3.41934333   0.02076086
453.00   3.41721816   0.02089879
454.00   3.41508833   0.02103732
455.00   3.41295384   0.02117646
456.00   3.41081469   0.02131622
457.00   3.40867087   0.02145659
458.00   3.40652240   0.02159757
459.00   3.40436926   0.02173916
460.00   3.40221147   0.02188138
461.00   3.40004902   0.02202421
462.00   3.39788190   0.02216766
463.00   3.39571013   0.02231173
464.00   3.39353370   0.02245642
465.00   3.39135261   0.02260173
466.00   3.38916686   0.02274767
467.00   3.38697645   0.02289423
468.00   3.38478139   0.02304142
469.00   3.38258166   0.02318924
470.00   3.38037728   0.02333769
471.00   3.37816825   0.02348677
472.00   3.37595455   0.02363648
473.00   3.37373620   0.02378683
474.00   3.37151319   0.02393781
475.00   3.36928553   0.02408943
476.00   3.36705320   0.02424168
477.00   3.36481623   0.02439457
478.00   3.36257460   0.02454811
479.00   3.36032831   0.02470228
480.00   3.35807737   0.02485710
481.00   3.35582177   0.02501256
482.00   3.35356151   0.02516867
483.00   3.35129661   0.02532542
484.00   3.34902705   0.02548283
485.00   3.34675283   0.02564088
486.00   3.34447396   0.02579958
487.00   3.34219044   0.02595893
488.00   3.33990227   0.02611894
489.00   3.33760944   0.02627960
490.00   3.33531196   0.02644092
491.00   3.33300983   0.02660290
492.00   3.33070304   0.02676553
493.00   3.32839160   0.02692883
494.00   3.32607551   0.02709278
495.00   3.32375477   0.02725740
496.00   3.32142938   0.02742269
497.00   3.31909934   0.02758863
498.00   3.31676465   0.02775525
499.00   3.31442530   0.02792253
500.00   3.31208131   0.02809048
501.00   3.30973267   0.02825911
502.00   3.30737938   0.02842840
503.00   3.30502143   0.02859837
504.00   3.30265884   0.02876901
505.00   3.30029160   0.02894033
506.00   3.29791971   0.02911232
507.00   3.29554318   0.02928500
508.00   3.29316199   0.02945835
509.00   3.29077616   0.02963239
510.00   3.28838568   0.02980710
511.00   3.28599055   0.02998250
512.00   3.28359077   0.03015859
513.00   3.28118635   0.03033536
514.00   3.27877728   0.03051282
515.00   3.27636357   0.03069097
516.00   3.27394521   0.03086981
517.00   3.27152220   0.03104934
518.00   3.26909455   0.03122957
519.00   3.26666225   0.03141049
520.00   3.26422531   0.03159210
521.00   3.26178372   0.03177441
522.00   3.25933749   0.03195742
523.00   3.25688662   0.03214113
524.00   3.25443110   0.03232554
525.00   3.25197094   0.03251066
526.00   3.24950613   0.03269647
527.00   3.24703668   0.03288299
528.00   3.24456259   0.03307022
529.00   3.24208385   0.03325815
530.00   3.23960048   0.03344680
531.00   3.23711246   0.03363615
532.00   3.23461980   0.03382622
533.00   3.23212250   0.03401700
534.00   3.22962055   0.03420849
535.00   3.22711397   0.03440070
536.00   3.22460275   0.03459362
537.00   3.22208688   0.03478726
538.00   3.21956638   0.03498162
539.00   3.21704123   0.03517671
540.00   3.21451145   0.03537251
541.00   3.21197702   0.03556904
542.00   3.20943796   0.03576629
543.00   3.20689426   0.03596427
544.00   3.20434592   0.03616298
545.00   3.20179294   0.03636241
546.00   3.19923532   0.03656258
547.00   3.19667307   0.03676347
548.00   3.19410618   0.03696510
549.00   3.19153465   0.03716746
550.00   3.18895849   0.03737056
551.00   3.18637769   0.03757439
552.00   3.18379225   0.03777896
553.00   3.18120218   0.03798427
554.00   3.17860747   0.03819032
555.00   3.17600812   0.03839712
556.00   3.17340414   0.03860465
557.00   3.17079553   0.03881293
558.00   3.16818228   0.03902196
559.00   3.16556440   0.03923173
560.00   3.16294188   0.03944225
561.00   3.16031473   0.03965352
562.00   3.15768295   0.03986554
563.00   3.15504653   0.04007832
564.00   3.15240548   0.04029184
565.00   3.14975980   0.04050613
566.00   3.14710948   0.04072116
567.00   3.14445453   0.04093696
568.00   3.14179496   0.04115352
569.00   3.13913075   0.04137083
570.00   3.13646191   0.04158891
571.00   3.13378843   0.04180775
572.00   3.13111033   0.04202735
573.00   3.12842760   0.04224772
574.00   3.12574024   0.04246885
575.00   3.12304825   0.04269075
576.00   3.12035163   0.04291343
577.00   3.11765038   0.04313687
578.00   3.11494450   0.04336108
579.00   3.11223399   0.04358607
580.00   3.10951885   0.04381184
581.00   3.10679909   0.04403837
582.00   3.10407470   0.04426569
583.00   3.10134568   0.04449378
584.00   3.09861204   0.04472266
585.00   3.09587376   0.04495231
586.00   3.09313087   0.04518275
587.00   3.09038334   0.04541397
588.00   3.08763119   0.04564598
589.00   3.08487442   0.04587877
590.00   3.08211302   0.04611235
591.00   3.07934699   0.04634672
592.00   3.07657634   0.04658188
593.00   3.07380106   0.04681783
594.00   3.07102117   0.04705457
595.00   3.06823664   0.04729211
596.00   3.06544750   0.04753044
597.00   3.06265373   0.04776957
598.00   3.05985534   0.04800950
599.00   3.05705232   0.04825023
600.00   3.05424469   0.04849176
601.00   3.05143243   0.04873409
602.00   3.04861555   0.04897722
603.00   3.04579405   0.04922116
604.00   3.04296793   0.04946590
605.00   3.04013719   0.04971146
606.00   3.03730182   0.04995782
607.00   3.03446184   0.05020499
608.00   3.03161724   0.05045297
609.00   3.02876802   0.05070176
610.00   3.02591418   0.05095137
611.00   3.02305572   0.05120179
612.00   3.02019264   0.05145303
613.00   3.01732494   0.05170509
614.00   3.01445263   0.05195796
615.00   3.01157569   0.05221166
616.00   3.00869415   0.05246618
617.00   3.00580798   0.05272152
618.00   3.00291720   0.05297768
619.00   3.00002180   0.05323467
620.00   2.99712178   0.05349249
621.00   2.99421715   0.05375113
622.00   2.99130791   0.05401061
623.00   2.98839405   0.05427091
624.00   2.98547557   0.05453205
625.00   2.98255248   0.05479402
626.00   2.97962478   0.05505683
627.00   2.97669246   0.05532047
628.00   2.97375553   0.05558495
629.00   2.97081398   0.05585027
630.00   2.96786782   0.05611642
631.00   2.96491706   0.05638342
632.00   2.96196167   0.05665126
633.00   2.95900168   0.05691995
634.00   2.95603707   0.05718948
635.00   2.95306786   0.05745985
636.00   2.95009403   0.05773108
637.00   2.94711559   0.05800315
638.00   2.94413254   0.05827607
639.00   2.94114489   0.05854985
640.00   2.93815262   0.05882448
641.00   2.93515574   0.05909996
642.00   2.93215425   0.05937630
643.00   2.92914816   0.05965349
644.00   2.92613746   0.05993154
645.00   2.92312215   0.06021046
646.00   2.92010223   0.06049023
647.00   2.91707770   0.06077086
648.00   2.91404857   0.06105236
649.00   2.91101483   0.06133472
650.00   2.90797648   0.06161795
651.00   2.90493353   0.06190205
652.00   2.90188597   0.06218701
653.00   2.89883381   0.06247285
654.00   2.89577704   0.06275955
655.00   2.89271567   0.06304713
656.00   2.88964969   0.06333558
657.00   2.88657911   0.06362491
658.00   2.88350393   0.06391511
659.00   2.88042414   0.06420619
660.00   2.87733975   0.06449815
661.00   2.87425075   0.06479099
662.00   2.87115716   0.06508471
663.00   2.86805896   0.06537931
664.00   2.86495616   0.06567480
665.00   2.86184876   0.06597117
666.00   2.85873676   0.06626843
667.00   2.85562015   0.06656658
668.00   2.85249895   0.06686562
669.00   2.84937315   0.06716555
670.00   2.84624274   0.06746637
671.00   2.84310774   0.06776808
672.00   2.83996814   0.06807069
673.00   2.83682394   0.06837419
674.00   2.83367514   0.06867859
675.00   2.83052175   0.06898389
676.00   2.82736375   0.06929009
677.00   2.82420116   0.06959718
678.00   2.82103397   0.06990519
679.00   2.81786219   0.07021409
680.00   2.81468581   0.07052390
681.00   2.81150483   0.07083462
682.00   2.80831926   0.07114624
683.00   2.80512909   0.07145877
684.00   2.80193433   0.07177222
685.00   2.79873497   0.07208657
686.00   2.79553102   0.07240183
687.00   2.79232248   0.07271801
688.00   2.78910934   0.07303511
689.00   2.78589161   0.07335312
690.00   2.78266928   0.07367205
691.00   2.77944236   0.07399190
692.00   2.77621086   0.07431267
693.00   2.77297475   0.07463436
694.00   2.76973406   0.07495697
695.00   2.76648878   0.07528051
696.00   2.76323891   0.07560498
697.00   2.75998444   0.07593037
698.00   2.75672539   0.07625668
699.00   2.75346174   0.07658393
700.00   2.75019351   0.07691211
701.00   2.74692069   0.07724122
702.00   2.74364328   0.07757127
703.00   2.74036128   0.07790224
704.00   2.73707469   0.07823416
705.00   2.73378352   0.07856701
706.00   2.73048776   0.07890080
707.00   2.72718741   0.07923553
708.00   2.72388247   0.07957120
709.00   2.72057295   0.07990781
710.00   2.71725885   0.08024537
711.00   2.71394016   0.08058387
712.00   2.71061688   0.08092332
713.00   2.70728902   0.08126372
714.00   2.70395657   0.08160506
715.00   2.70061954   0.08194736
716.00   2.69727793   0.08229060
717.00   2.69393173   0.08263480
718.00   2.69058095   0.08297995
719.00   2.68722559   0.08332606
720.00   2.68386565   0.08367312
721.00   2.68050112   0.08402115
722.00   2.67713201   0.08437013
723.00   2.67375833   0.08472007
724.00   2.67038006   0.08507097
725.00   2.66699721   0.08542284
726.00   2.66360978   0.08577567
727.00   2.66021777   0.08612947
728.00   2.65682118   0.08648423
729.00   2.65342002   0.08683996
730.00   2.65001427   0.08719666
731.00   2.64660395   0.08755433
732.00   2.64318905   0.08791297
733.00   2.63976957   0.08827259
734.00   2.63634551   0.08863318
735.00   2.63291688   0.08899475
736.00   2.62948367   0.08935729
737.00   2.62604589   0.08972081
738.00   2.62260353   0.09008532
739.00   2.61915659   0.09045080
740.00   2.61570508   0.09081726
741.00   2.61224900   0.09118471
742.00   2.60878834   0.09155315
743.00   2.60532311   0.09192257
744.00   2.60185331   0.09229297
745.00   2.59837893   0.09266437
746.00   2.59489998   0.09303676
747.00   2.59141645   0.09341013
748.00   2.58792836   0.09378450
749.00   2.58443569   0.09415987
750.00   2.58093846   0.09453622
751.00   2.57743665   0.09491358
752.00   2.57393027   0.09529193
753.00   2.57041932   0.09567128
754.00   2.56690381   0.09605164
755.00   2.56338372   0.09643299
756.00   2.55985907   0.09681535
757.00   2.55632984   0.09719871
758.00   2.55279605   0.09758307
759.00   2.54925769   0.09796844
760.00   2.54571477   0.09835482
761.00   2.54216727   0.09874221
762.00   2.53861521   0.09913061
763.00   2.53505859   0.09952003
764.00   2.53149740   0.09991045
765.00   2.52793164   0.10030189
766.00   2.52436132   0.10069435
767.00   2.52078643   0.10108782
768.00   2.51720698   0.10148231
769.00   2.51362297   0.10187782
770.00   2.51003439   0.10227435
771.00   2.50644125   0.10267190
772.00   2.50284355   0.10307047
773.00   2.49924128   0.10347007
774.00   2.49563445   0.10387070
775.00   2.49202307   0.10427235
776.00   2.48840712   0.10467504
777.00   2.48478661   0.10507875
778.00   2.48116153   0.10548349
779.00   2.47753190   0.10588926
780.00   2.47389771   0.10629607
781.00   2.47025897   0.10670391
782.00   2.46661566   0.10711279
783.00   2.46296779   0.10752271
784.00   2.45931537   0.10793366
785.00   2.45565839   0.10834566
786.00   2.45199685   0.10875869
787.00   2.44833075   0.10917277
788.00   2.44466010   0.10958790
789.00   2.44098489   0.11000406
790.00   2.43730513   0.11042128
791.00   2.43362081   0.11083954
792.00   2.42993194   0.11125885
793.00   2.42623851   0.11167921
794.00   2.42254053   0.11210062
795.00   2.41883799   0.11252308
796.00   2.41513090   0.11294660
797.00   2.41141926   0.11337118
798.00   2.40770307   0.11379681
799.00   2.40398232   0.11422349
800.00   2.40025703   0.11465124
801.00   2.39652718   0.11508005
802.00   2.39279278   0.11550992
803.00   2.38905383   0.11594085
804.00   2.38531033   0.11637284
805.00   2.38156228   0.11680590
806.00   2.37780968   0.11724003
807.00   2.37405253   0.11767523
808.00   2.37029084   0.11811149
809.00   2.36652460   0.11854883
810.00   2.36275381   0.11898724
811.00   2.35897847   0.11942672
812.00   2.35519858   0.11986727
813.00   2.35141415   0.12030890
814.00   2.34762517   0.12075161
815.00   2.34383165   0.12119540
816.00   2.34003358   0.12164026
817.00   2.33623097   0.12208621
818.00   2.33242382   0.12253323
819.00   2.32861212   0.12298134
820.00   2.32479587   0.12343054
821.00   2.32097508   0.12388082
822.00   2.31714976   0.12433219
823.00   2.31331988   0.12478465
824.00   2.30948547   0.12523819
825.00   2.30564652   0.12569283
826.00   2.30180302   0.12614856
827.00   2.29795498   0.12660538
828.00   2.29410241   0.12706330
829.00   2.29024529   0.12752231
830.00   2.28638363   0.12798242
831.00   2.28251744   0.12844363
832.00   2.27864671   0.12890594
833.00   2.27477143   0.12936935
834.00   2.27089163   0.12983386
835.00   2.26700728   0.13029947
836.00   2.26311840   0.13076619
837.00   2.25922498   0.13123402
838.00   2.25532702   0.13170295
839.00   2.25142453   0.13217299
840.00   2.24751750   0.13264415
841.00   2.24360594   0.13311641
842.00   2.23968985   0.13358978
843.00   2.23576922   0.13406427
844.00   2.23184405   0.13453988
845.00   2.22791436   0.13501660
846.00   2.22398013   0.13549444
847.00   2.22004137   0.13597339
848.00   2.21609808   0.13645347
849.00   2.21215025   0.13693467
850.00   2.20819790   0.13741699
851.00   2.20424101   0.13790043
852.00   2.20027960   0.13838500
853.00   2.19631365   0.13887069
854.00   2.19234318   0.13935752
855.00   2.18836818   0.13984547
856.00   2.18438864   0.14033455
857.00   2.18040459   0.14082476
858.00   2.17641600   0.14131611
859.00   2.17242288   0.14180859
860.00   2.16842524   0.14230221
861.00   2.16442308   0.14279696
862.00   2.16041638   0.14329285
863.00   2.15640517   0.14378987
864.00   2.15238942   0.14428804
865.00   2.14836915   0.14478735
866.00   2.14434436   0.14528780
867.00   2.14031505   0.14578940
868.00   2.13628121   0.14629214
869.00   2.13224285   0.14679603
870.00   2.12819996   0.14730107
871.00   2.12415256   0.14780725
872.00   2.12010063   0.14831459
873.00   2.11604418   0.14882307
874.00   2.11198321   0.14933271
875.00   2.10791772   0.14984351
876.00   2.10384772   0.15035546
877.00   2.09977319   0.15086856
878.00   2.09569414   0.15138283
879.00   2.09161057   0.15189825
880.00   2.08752249   0.15241483
881.00   2.08342989   0.15293258
882.00   2.07933277   0.15345148
883.00   2.07523114   0.15397156
884.00   2.07112499   0.15449279
885.00   2.06701432   0.15501520
886.00   2.06289914   0.15553877
887.00   2.05877944   0.15606351
888.00   2.05465523   0.15658942
889.00   2.05052650   0.15711650
890.00   2.04639326   0.15764476
891.00   2.04225551   0.15817419
892.00   2.03811324   0.15870480
893.00   2.03396647   0.15923658
894.00   2.02981518   0.15976954
895.00   2.02565938   0.16030368
896.00   2.02149907   0.16083900
897.00   2.01733424   0.16137550
898.00   2.01316491   0.16191318
899.00   2.00899107   0.16245205
900.00   2.00481272   0.16299211
901.00   2.00062986   0.16353335
902.00   1.99644249   0.16407578
903.00   1.99225062   0.16461940
904.00   1.98805423   0.16516421
905.00   1.98385334   0.16571021
906.00   1.97964795   0.16625740
907.00   1.97543804   0.16680579
908.00   1.97122364   0.16735537
909.00   1.96700472   0.16790615
910.00   1.96278131   0.16845813
911.00   1.95855338   0.16901131
912.00   1.95432096   0.16956569
913.00   1.95008403   0.17012127
914.00   1.94584260   0.17067805
915.00   1.94159666   0.17123604
916.00   1.93734623   0.17179523
917.00   1.93309129   0.17235563
918.00   1.92883185   0.17291724
919.00   1.92456791   0.17348005
920.00   1.92029948   0.17404408
921.00   1.91602654   0.17460932
922.00   1.91174910   0.17517577
923.00   1.90746716   0.17574344
924.00   1.90318073   0.17631232
925.00   1.89888979   0.17688242
926.00   1.89459436   0.17745374
927.00   1.89029444   0.17802627
928.00   1.88599001   0.17860003
929.00   1.88168110   0.17917501
930.00   1.87736768   0.17975121
931.00   1.87304977   0.18032864
932.00   1.86872737   0.18090729
933.00   1.86440047   0.18148717
934.00   1.86006908   0.18206827
935.00   1.85573319   0.18265061
936.00   1.85139281   0.18323417
937.00   1.84704794   0.18381897
938.00   1.84269858   0.18440500
939.00   1.83834473   0.18499227
940.00   1.83398638   0.18558077
941.00   1.82962355   0.18617051
942.00   1.82525622   0.18676148
943.00   1.82088441   0.18735369
944.00   1.81650810   0.18794715
945.00   1.81212731   0.18854185
946.00   1.80774203   0.18913779
947.00   1.80335227   0.18973497
948.00   1.79895801   0.19033340
949.00   1.79455927   0.19093307
950.00   1.79015604   0.19153400
951.00   1.78574833   0.19213617
952.00   1.78133613   0.19273960
953.00   1.77691945   0.19334427
954.00   1.77249828   0.19395020
955.00   1.76807263   0.19455738
956.00   1.76364249   0.19516582
957.00   1.75920788   0.19577551
958.00   1.75476878   0.19638646
959.00   1.75032519   0.19699868
960.00   1.74587713   0.19761215
961.00   1.74142459   0.19822688
962.00   1.73696756   0.19884288
963.00   1.73250606   0.19946014
964.00   1.72804007   0.20007866
965.00   1.72356961   0.20069845
966.00   1.71909467   0.20131951
967.00   1.71461525   0.20194184
968.00   1.71013135   0.20256544
969.00   1.70564297   0.20319031
970.00   1.70115012   0.20381646
971.00   1.69665279   0.20444387
972.00   1.69215099   0.20507257
973.00   1.68764471   0.20570254
974.00   1.68313396   0.20633378
975.00   1.67861873   0.20696631
976.00   1.67409903   0.20760012
977.00   1.66957485   0.20823520
978.00   1.66504621   0.20887157
979.00   1.66051309   0.20950923
980.00   1.65597549   0.21014817
981.00   1.65143343   0.21078839
982.00   1.64688690   0.21142991
983.00   1.64233589   0.21207271
984.00   1.63778042   0.21271680
985.00   1.63322047   0.21336218
986.00   1.62865606   0.21400886
987.00   1.62408718   0.21465683
988.00   1.61951383   0.21530609
989.00   1.61493601   0.21595665
990.00   1.61035373   0.21660851
991.00   1.60576698   0.21726167
992.00   1.60117576   0.21791613
993.00   1.59658008   0.21857189
994.00   1.59197993   0.21922895
995.00   1.58737532   0.21988731
996.00   1.58276624   0.22054698
997.00   1.57815270   0.22120796
998.00   1.57353470   0.22187024
999.00   1.56891224   0.22253383
1000.00   1.56428531   0.22319873
1001.00   1.55965392   0.22386495
1002.00   1.55501807   0.22453247
1003.00   1.55037776   0.22520131
1004.00   1.54573299   0.22587146
1005.00   1.54108376   0.22654293
1006.00   1.53643007   0.22721572
1007.00   1.53177192   0.22788982
1008.00   1.52710931   0.22856525
1009.00   1.52244225   0.22924199
1010.00   1.51777073   0.22992006
1011.00   1.51309475   0.23059945
1012.00   1.50841432   0.23128017
1013.00   1.50372943   0.23196221
1014.00   1.49904008   0.23264558
1015.00   1.49434629   0.23333027
1016.00   1.48964803   0.23401630
1017.00   1.48494533   0.23470366
1018.00   1.48023817   0.23539234
1019.00   1.47552655   0.23608237
1020.00   1.47081049   0.23677372
1021.00   1.46608997   0.23746642
1022.00   1.46136500   0.23816044
1023.00   1.45663558   0.23885581
1024.00   1.45190172   0.23955252
1025.00   1.44716340   0.24025056
1026.00   1.44242063   0.24094995
1027.00   1.43767342   0.24165069
1028.00   1.43292175   0.24235276
1029.00   1.42816564   0.24305618
1030.00   1.42340508   0.24376095
1031.00   1.41864008   0.24446707
1032.00   1.41387062   0.24517453
1033.00   1.40909673   0.24588335
1034.00   1.40431839   0.24659352
1035.00   1.39953560   0.24730504
1036.00   1.39474837   0.24801791
1037.00   1.38995669   0.24873214
1038.00   1.38516058   0.24944772
1039.00   1.38036002   0.25016467
1040.00   1.37555502   0.25088297
1041.00   1.37074557   0.25160263
1042.00   1.36593169   0.25232366
1043.00   1.36111336   0.25304604
1044.00   1.35629060   0.25376979
1045.00   1.35146340   0.25449491
1046.00   1.34663175   0.25522139
1047.00   1.34179567   0.25594924
1048.00   1.33695515   0.25667846
1049.00   1.33211019   0.25740905
1050.00   1.32726080   0.25814100
1051.00   1.32240697   0.25887434
1052.00   1.31754871   0.25960904
1053.00   1.31268600   0.26034512
1054.00   1.30781887   0.26108258
1055.00   1.30294730   0.26182141
1056.00   1.29807129   0.26256162
1057.00   1.29319086   0.26330321
1058.00   1.28830599   0.26404618
1059.00   1.28341668   0.26479054
1060.00   1.27852295   0.26553628
1061.00   1.27362478   0.26628340
1062.00   1.26872219   0.26703191
1063.00   1.26381516   0.26778180
1064.00   1.25890371   0.26853308
1065.00   1.25398782   0.26928576
1066.00   1.24906751   0.27003982
1067.00   1.24414277   0.27079527
1068.00   1.23921360   0.27155212
1069.00   1.23428000   0.27231036
1070.00   1.22934198   0.27307000
1071.00   1.22439953   0.27383104
1072.00   1.21945266   0.27459347
1073.00   1.21450136   0.27535730
1074.00   1.20954564   0.27612253
1075.00   1.20458549   0.27688916
1076.00   1.19962092   0.27765720
1077.00   1.19465193   0.27842664
1078.00   1.18967851   0.27919749
1079.00   1.18470067   0.27996974
1080.00   1.17971841   0.28074340
1081.00   1.17473174   0.28151847
1082.00   1.16974064   0.28229494
1083.00   1.16474512   0.28307283
1084.00   1.15974518   0.28385214
1085.00   1.15474082   0.28463285
1086.00   1.14973205   0.28541498
1087.00   1.14471886   0.28619853
1088.00   1.13970125   0.28698349
1089.00   1.13467922   0.28776988
1090.00   1.12965278   0.28855768
1091.00   1.12462192   0.28934690
1092.00   1.11958665   0.29013755
1093.00   1.11454697   0.29092962
1094.00   1.10950287   0.29172311
1095.00   1.10445435   0.29251803
1096.00   1.09940143   0.29331438
1097.00   1.09434409   0.29411215
1098.00   1.08928234   0.29491136
1099.00   1.08421618   0.29571199
1100.00   1.07914561   0.29651406
1101.00   1.07407063   0.29731756
1102.00   1.06899124   0.29812249
1103.00   1.06390744   0.29892886
1104.00   1.05881923   0.29973667
1105.00   1.05372661   0.30054591
1106.00   1.04862959   0.30135659
1107.00   1.04352816   0.30216872
1108.00   1.03842232   0.30298228
1109.00   1.03331208   0.30379729
1110.00   1.02819743   0.30461374
1111.00   1.02307838   0.30543164
1112.00   1.01795493   0.30625098
1113.00   1.01282707   0.30707177
1114.00   1.00769481   0.30789401
1115.00   1.00255814   0.30871770
1116.00   0.99741707   0.30954284
1117.00   0.99227161   0.31036943
1118.00   0.98712174   0.31119748
1119.00   0.98196747   0.31202698
1120.00   0.97680880   0.31285794
1121.00   0.97164573   0.31369035
1122.00   0.96647826   0.31452423
1123.00   0.96130640   0.31535956
1124.00   0.95613014   0.31619635
1125.00   0.95094948   0.31703461
1126.00   0.94576442   0.31787432
1127.00   0.94057497   0.31871551
1128.00   0.93538112   0.31955815
1129.00   0.93018288   0.32040227
1130.00   0.92498024   0.32124785
1131.00   0.91977321   0.32209490
1132.00   0.91456179   0.32294343
1133.00   0.90934598   0.32379342
1134.00   0.90412577   0.32464489
1135.00   0.89890117   0.32549783
1136.00   0.89367218   0.32635224
1137.00   0.88843880   0.32720813
1138.00   0.88320103   0.32806550
1139.00   0.87795887   0.32892435
1140.00   0.87271232   0.32978468
1141.00   0.86746139   0.33064649
1142.00   0.86220606   0.33150978
1143.00   0.85694635   0.33237456
1144.00   0.85168225   0.33324082
1145.00   0.84641377   0.33410857
1146.00   0.84114090   0.33497780
1147.00   0.83586365   0.33584852
1148.00   0.83058201   0.33672073
1149.00   0.82529599   0.33759443
1150.00   0.82000558   0.33846963
1151.00   0.81471079   0.33934631
1152.00   0.80941163   0.34022450
1153.00   0.80410807   0.34110417
1154.00   0.79880014   0.34198535
1155.00   0.79348783   0.34286802
1156.00   0.78817114   0.34375219
1157.00   0.78285007   0.34463786
1158.00   0.77752462   0.34552503
1159.00   0.77219479   0.34641371
1160.00   0.76686058   0.34730389
1161.00   0.76152200   0.34819557
1162.00   0.75617904   0.34908876
1163.00   0.75083171   0.34998346
1164.00   0.74548000   0.35087967
1165.00   0.74012391   0.35177738
1166.00   0.73476345   0.35267661
1167.00   0.72939862   0.35357735
1168.00   0.72402942   0.35447960
1169.00   0.71865584   0.35538337
1170.00   0.71327789   0.35628865
1171.00   0.70789557   0.35719545
1172.00   0.70250887   0.35810377
1173.00   0.69711781   0.35901361
1174.00   0.69172238   0.35992497
1175.00   0.68632258   0.36083785
1176.00   0.68091841   0.36175225
1177.00   0.67550987   0.36266818
1178.00   0.67009697   0.36358563
1179.00   0.66467970   0.36450461
1180.00   0.65925806   0.36542511
1181.00   0.65383206   0.36634715
1182.00   0.64840169   0.36727071
1183.00   0.64296696   0.36819581
1184.00   0.63752786   0.36912244
1185.00   0.63208440   0.37005060
1186.00   0.62663658   0.37098030
1187.00   0.62118439   0.37191153
1188.00   0.61572785   0.37284430
1189.00   0.61026694   0.37377861
1190.00   0.60480167   0.37471446
1191.00   0.59933204   0.37565185
1192.00   0.59385806   0.37659078
1193.00   0.58837971   0.37753126
1194.00   0.58289701   0.37847327
1195.00   0.57740994   0.37941684
1196.00   0.57191853   0.38036195
1197.00   0.56642275   0.38130861
1198.00   0.56092262   0.38225681
1199.00   0.55541813   0.38320657
1200.00   0.54990929   0.38415788
1201.00   0.54439610   0.38511074
1202.00   0.53887855   0.38606516
1203.00   0.53335665   0.38702113
1204.00   0.52783039   0.38797865
1205.00   0.52229979   0.38893774
1206.00   0.51676483   0.38989838
1207.00   0.51122553   0.39086058
1208.00   0.50568187   0.39182434
1209.00   0.50013386   0.39278967
1210.00   0.49458151   0.39375655
1211.00   0.48902480   0.39472500
1212.00   0.48346375   0.39569502
1213.00   0.47789835   0.39666661
1214.00   0.47232861   0.39763976
1215.00   0.46675452   0.39861448
1216.00   0.46117608   0.39959077
1217.00   0.45559330   0.40056863
1218.00   0.45000617   0.40154807
1219.00   0.44441471   0.40252908
1220.00   0.43881889   0.40351166
1221.00   0.43321874   0.40449582
1222.00   0.42761424   0.40548156
1223.00   0.42200541   0.40646887
1224.00   0.41639223   0.40745777
1225.00   0.41077471   0.40844824
1226.00   0.40515285   0.40944030
1227.00   0.39952666   0.41043394
1228.00   0.39389612   0.41142917
1229.00   0.38826125   0.41242598
1230.00   0.38262204   0.41342438
1231.00   0.37697850   0.41442437
1232.00   0.37133061   0.41542594
1233.00   0.36567840   0.41642911
1234.00   0.36002185   0.41743386
1235.00   0.35436096   0.41844021
1236.00   0.34869574   0.41944815
1237.00   0.34302619   0.42045769
1238.00   0.33735230   0.42146882
1239.00   0.33167409   0.42248156
1240.00   0.32599154   0.42349589
1241.00   0.32030466   0.42451181
1242.00   0.31461345   0.42552934
1243.00   0.30891792   0.42654848
1244.00   0.30321805   0.42756921
1245.00   0.29751386   0.42859155
1246.00   0.29180534   0.42961549
1247.00   0.28609249   0.43064105
1248.00   0.28037531   0.43166820
1249.00   0.27465381   0.43269697
1250.00   0.26892799   0.43372735
1251.00   0.26319784   0.43475934
1252.00   0.25746336   0.43579294
1253.00   0.25172456   0.43682816
1254.00   0.24598144   0.43786499
1255.00   0.24023400   0.43890343
1256.00   0.23448224   0.43994350
1257.00   0.22872615   0.44098518
1258.00   0.22296575   0.44202848
1259.00   0.21720102   0.44307340
1260.00   0.21143198   0.44411994
1261.00   0.20565862   0.44516811
1262.00   0.19988093   0.44621790
1263.00   0.19409894   0.44726932
1264.00   0.18831262   0.44832236
1265.00   0.18252199   0.44937703
1266.00   0.17672705   0.45043333
1267.00   0.17092779   0.45149125
1268.00   0.16512421   0.45255081
1269.00   0.15931632   0.45361201
1270.00   0.15350412   0.45467483
1271.00   0.14768760   0.45573929
1272.00   0.14186678   0.45680539
1273.00   0.13604164   0.45787312
1274.00   0.13021219   0.45894249
1275.00   0.12437844   0.46001350
1276.00   0.11854037   0.46108615
1277.00   0.11269799   0.46216044
1278.00   0.10685131   0.46323638
1279.00   0.10100032   0.46431395
1280.00   0.09514502   0.46539318
1281.00   0.08928541   0.46647405
1282.00   0.08342150   0.46755656
1283.00   0.07755329   0.46864073
1284.00   0.07168077   0.46972654
1285.00   0.06580394   0.47081401
1286.00   0.05992281   0.47190313
1287.00   0.05403738   0.47299390
1288.00   0.04814765   0.47408632
1289.00   0.04225362   0.47518041
1290.00   0.03635529   0.47627614
1291.00   0.03045265   0.47737354
1292.00   0.02454572   0.47847259
1293.00   0.01863448   0.47957331
1294.00   0.01271895   0.48067568
1295.00   0.00679912   0.48177972
1296.00   0.00087500   0.48288542
1297.00  -0.00505342   0.48399279
1298.00  -0.01098614   0.48510182
1299.00  -0.01692315   0.48621252
1300.00  -0.02286446   0.48732489
1301.00  -0.02881006   0.48843892
1302.00  -0.03475996   0.48955463
1303.00  -0.04071415   0.49067201
1304.00  -0.04667263   0.49179106
1305.00  -0.05263540   0.49291178
1306.00  -0.05860246   0.49403418
1307.00  -0.06457381   0.49515826
1308.00  -0.07054946   0.49628402
1309.00  -0.07652939   0.49741145
1310.00  -0.08251361   0.49854056
1311.00  -0.08850211   0.49967135
1312.00  -0.09449491   0.50080383
1313.00  -0.10049199   0.50193799
1314.00  -0.10649335   0.50307383
1315.00  -0.11249901   0.50421136
1316.00  -0.11850894   0.50535057
1317.00  -0.12452316   0.50649148
1318.00  -0.13054167   0.50763407
1319.00  -0.13656445   0.50877835
1320.00  -0.14259152   0.50992432
1321.00  -0.14862287   0.51107199
1322.00  -0.15465850   0.51222134
1323.00  -0.16069841   0.51337240
1324.00  -0.16674260   0.51452515
1325.00  -0.17279107   0.51567959
1326.00  -0.17884382   0.51683574
1327.00  -0.18490084   0.51799358
1328.00  -0.19096215   0.51915312
1329.00  -0.19702773   0.52031437
1330.00  -0.20309758   0.52147731
1331.00  -0.20917171   0.52264197
1332.00  -0.21525011   0.52380832
1333.00  -0.22133279   0.52497638
1334.00  -0.22741974   0.52614615
1335.00  -0.23351097   0.52731763
1336.00  -0.23960646   0.52849082
1337.00  -0.24570623   0.52966572
1338.00  -0.25181027   0.53084233
1339.00  -0.25791857   0.53202065
1340.00  -0.26403115   0.53320069
1341.00  -0.27014800   0.53438244
1342.00  -0.27626911   0.53556591
1343.00  -0.28239449   0.53675110
1344.00  -0.28852414   0.53793800
1345.00  -0.29465805   0.53912663
1346.00  -0.30079623   0.54031697
1347.00  -0.30693868   0.54150904
1348.00  -0.31308539   0.54270283
1349.00  -0.31923636   0.54389835
1350.00  -0.32539160   0.54509559
1351.00  -0.33155109   0.54629456
1352.00  -0.33771485   0.54749525
1353.00  -0.34388288   0.54869768
1354.00  -0.35005516   0.54990183
1355.00  -0.35623170   0.55110772
1356.00  -0.36241250   0.55231533
1357.00  -0.36859756   0.55352468
1358.00  -0.37478687   0.55473577
1359.00  -0.38098045   0.55594859
1360.00  -0.38717828   0.55716315
1361.00  -0.39338037   0.55837945
1362.00  -0.39958671   0.55959748
1363.00  -0.40579730   0.56081726
1364.00  -0.41201215   0.56203878
1365.00  -0.41823126   0.56326204
1366.00  -0.42445461   0.56448704
1367.00  -0.43068222   0.56571379
1368.00  -0.43691408   0.56694228
1369.00  -0.44315019   0.56817253
1370.00  -0.44939055   0.56940452
1371.00  -0.45563516   0.57063826
1372.00  -0.46188402   0.57187375
1373.00  -0.46813713   0.57311099
1374.00  -0.47439448   0.57434998
1375.00  -0.48065608   0.57559073
1376.00  -0.48692193   0.57683323
1377.00  -0.49319202   0.57807749
1378.00  -0.49946636   0.57932351
1379.00  -0.50574494   0.58057128
1380.00  -0.51202777   0.58182082
1381.00  -0.51831484   0.58307211
1382.00  -0.52460615   0.58432517
1383.00  -0.53090170   0.58557999
1384.00  -0.53720150   0.58683658
1385.00  -0.54350553   0.58809493
1386.00  -0.54981380   0.58935504
1387.00  -0.55612632   0.59061692
1388.00  -0.56244307   0.59188058
1389.00  -0.56876406   0.59314600
1390.00  -0.57508928   0.59441319
1391.00  -0.58141874   0.59568215
1392.00  -0.58775244   0.59695289
1393.00  -0.59409037   0.59822540
1394.00  -0.60043254   0.59949969
1395.00  -0.60677894   0.60077575
1396.00  -0.61312957   0.60205360
1397.00  -0.61948444   0.60333322
1398.00  -0.62584354   0.60461462
1399.00  -0.63220687   0.60589780
1400.00  -0.63857443   0.60718276
1401.00  -0.64494622   0.60846951
1402.00  -0.65132223   0.60975804
1403.00  -0.65770248   0.61104835
1404.00  -0.66408696   0.61234045
1405.00  -0.67047566   0.61363434
1406.00  -0.67686859   0.61493002
1407.00  -0.68326574   0.61622749
1408.00  -0.68966712   0.61752675
1409.00  -0.69607272   0.61882780
1410.00  -0.70248255   0.62013065
1411.00  -0.70889660   0.62143529
1412.00  -0.71531487   0.62274173
1413.00  -0.72173737   0.62404996
1414.00  -0.72816408   0.62535999
1415.00  -0.73459502   0.62667182
1416.00  -0.74103018   0.62798545
1417.00  -0.74746955   0.62930088
1418.00  -0.75391315   0.63061811
1419.00  -0.76036096   0.63193715
1420.00  -0.76681299   0.63325799
1421.00  -0.77326923   0.63458063
1422.00  -0.77972969   0.63590509
1423.00  -0.78619437   0.63723135
1424.00  -0.79266326   0.63855942
1425.00  -0.79913636   0.63988930
1426.00  -0.80561368   0.64122099
1427.00  -0.81209521   0.64255449
1428.00  -0.81858095   0.64388981
1429.00  -0.82507091   0.64522694
1430.00  -0.83156507   0.64656589
1431.00  -0.83806344   0.64790665
1432.00  -0.84456602   0.64924923
1433.00  -0.85107281   0.65059364
1434.00  -0.85758381   0.65193986
1435.00  -0.86409902   0.65328790
1436.00  -0.87061843   0.65463776
1437.00  -0.87714205   0.65598945
1438.00  -0.88366987   0.65734297
1439.00  -0.89020190   0.65869831
1440.00  -0.89673813   0.66005547
1441.00  -0.90327856   0.66141446
1442.00  -0.90982320   0.66277529
1443.00  -0.91637203   0.66413794
1444.00  -0.92292507   0.66550242
1445.00  -0.92948231   0.66686874
1446.00  -0.93604375   0.66823689
1447.00  -0.94260938   0.66960688
1448.00  -0.94917922   0.67097870
1449.00  -0.95575325   0.67235235
1450.00  -0.96233148   0.67372785
1451.00  -0.96891391   0.67510518
1452.00  -0.97550053   0.67648436
1453.00  -0.98209135   0.67786537
1454.00  -0.98868636   0.67924823
1455.00  -0.99528556   0.68063293
1456.00  -1.00188896   0.68201948
1457.00  -1.00849655   0.68340787
1458.00  -1.01510833   0.68479811
1459.00  -1.02172430   0.68619019
1460.00  -1.02834446   0.68758413
1461.00  -1.03496881   0.68897992
1462.00  -1.04159735   0.69037755
1463.00  -1.04823008   0.69177704
1464.00  -1.05486699   0.69317838
1465.00  -1.06150809   0.69458158
1466.00  -1.06815338   0.69598663
1467.00  -1.07480285   0.69739354
1468.00  -1.08145651   0.69880231
1469.00  -1.08811435   0.70021294
1470.00  -1.09477637   0.70162542
1471.00  -1.10144258   0.70303977
1472.00  -1.10811297   0.70445598
1473.00  -1.11478754   0.70587405
1474.00  -1.12146629   0.70729399
1475.00  -1.12814922   0.70871579
1476.00  -1.13483633   0.71013946
1477.00  -1.14152762   0.71156500
1478.00  -1.14822308   0.71299241
1479.00  -1.15492272   0.71442169
1480.00  -1.16162654   0.71585283
1481.00  -1.16833454   0.71728585
1482.00  -1.17504670   0.71872075
1483.00  -1.18176305   0.72015751
1484.00  -1.18848356   0.72159616
1485.00  -1.19520825   0.72303667
1486.00  -1.20193711   0.72447907
1487.00  -1.20867015   0.72592335
1488.00  -1.21540735   0.72736950
1489.00  -1.22214873   0.72881754
1490.00  -1.22889427   0.73026746
1491.00  -1.23564398   0.73171926
1492.00  -1.24239786   0.73317295
1493.00  -1.24915591   0.73462852
1494.00  -1.25591812   0.73608598
1495.00  -1.26268450   0.73754532
1496.00  -1.26945505   0.73900655
1497.00  -1.27622976   0.74046968
1498.00  -1.28300863   0.74193469
1499.00  -1.28979166   0.74340160
1500.00  -1.29657886   0.74487040
1501.00  -1.30337022   0.74634109
1502.00  -1.31016574   0.74781368
1503.00  -1.31696543   0.74928817
1504.00  -1.32376927   0.75076455
1505.00  -1.33057727   0.75224283
1506.00  -1.33738943   0.75372301
1507.00  -1.34420574   0.75520509
1508.00  -1.35102621   0.75668907
1509.00  -1.35785084   0.75817496
1510.00  -1.36467963   0.75966275
1511.00  -1.37151257   0.76115244
1512.00  -1.37834966   0.76264404
1513.00  -1.38519090   0.76413755
1514.00  -1.39203630   0.76563296
1515.00  -1.39888585   0.76713029
1516.00  -1.40573955   0.76862953
1517.00  -1.41259741   0.77013067
1518.00  -1.41945941   0.77163373
1519.00  -1.42632556   0.77313871
1520.00  -1.43319586   0.77464559
1521.00  -1.44007031   0.77615440
1522.00  -1.44694890   0.77766512
1523.00  -1.45383164   0.77917776
1524.00  -1.46071852   0.78069232
1525.00  -1.46760955   0.78220879
1526.00  -1.47450473   0.78372719
1527.00  -1.48140405   0.78524752
1528.00  -1.48830751   0.78676976
1529.00  -1.49521511   0.78829393
1530.00  -1.50212685   0.78982003
1531.00  -1.50904274   0.79134805
1532.00  -1.51596276   0.79287800
1533.00  -1.52288692   0.79440988
1534.00  -1.52981522   0.79594369
1535.00  -1.53674766   0.79747943
1536.00  -1.54368424   0.79901710
1537.00  -1.55062495   0.80055671
1538.00  -1.55756980   0.80209825
1539.00  -1.56451878   0.80364172
1540.00  -1.57147190   0.80518714
1541.00  -1.57842915   0.80673449
1542.00  -1.58539053   0.80828377
1543.00  -1.59235605   0.80983500
1544.00  -1.59932569   0.81138817
1545.00  -1.60629947   0.81294328
1546.00  -1.61327738   0.81450033
1547.00  -1.62025941   0.81605933
1548.00  -1.62724558   0.81762027
1549.00  -1.63423587   0.81918316
1550.00  -1.64123029   0.82074800
1551.00  -1.64822883   0.82231478
1552.00  -1.65523151   0.82388351
1553.00  -1.66223830   0.82545420
1554.00  -1.66924922   0.82702683
1555.00  -1.67626426   0.82860142
1556.00  -1.68328343   0.83017796
1557.00  -1.69030672   0.83175646
1558.00  -1.69733413   0.83333691
1559.00  -1.70436565   0.83491932
1560.00  -1.71140130   0.83650369
1561.00  -1.71844107   0.83809002
1562.00  -1.72548496   0.83967830
1563.00  -1.73253296   0.84126855
1564.00  -1.73958508   0.84286076
1565.00  -1.74664132   0.84445493
1566.00  -1.75370167   0.84605107
1567.00  -1.76076614   0.84764918
1568.00  -1.76783472   0.84924925
1569.00  -1.77490742   0.85085128
1570.00  -1.78198422   0.85245529
1571.00  -1.78906514   0.85406127
1572.00  -1.79615017   0.85566921
1573.00  -1.80323931   0.85727913
1574.00  -1.81033256   0.85889102
1575.00  -1.81742992   0.86050489
1576.00  -1.82453139   0.86212073
1577.00  -1.83163696   0.86373855
1578.00  -1.83874664   0.86535834
1579.00  -1.84586043   0.86698011
1580.00  -1.85297832   0.86860387
1581.00  -1.86010032   0.87022960
1582.00  -1.86722642   0.87185731
1583.00  -1.87435663   0.87348701
1584.00  -1.88149093   0.87511869
1585.00  -1.88862934   0.87675236
1586.00  -1.89577185   0.87838801
1587.00  -1.90291846   0.88002565
1588.00  -1.91006917   0.88166527
1589.00  -1.91722397   0.88330689
1590.00  -1.92438288   0.88495049
1591.00  -1.93154588   0.88659609
1592.00  -1.93871298   0.88824368
1593.00  -1.94588418   0.88989326
1594.00  -1.95305947   0.89154483
1595.00  -1.96023885   0.89319840
1596.00  -1.96742233   0.89485397
1597.00  -1.97460990   0.89651154
1598.00  -1.98180156   0.89817110
1599.00  -1.98899732   0.89983266
1600.00  -1.99619716   0.90149623
1601.00  -2.00340109   0.90316179
1602.00  -2.01060912   0.90482936
1603.00  -2.01782123   0.90649893
1604.00  -2.02503743   0.90817051
1605.00  -2.03225772   0.90984409
1606.00  -2.03948209   0.91151968
1607.00  -2.04671055   0.91319728
1608.00  -2.05394309   0.91487689
1609.00  -2.06117972   0.91655851
1610.00  -2.06842043   0.91824214
1611.00  -2.07566522   0.91992778
1612.00  -2.08291410   0.92161543
1613.00  -2.09016705   0.92330510
1614.00  -2.09742409   0.92499679
1615.00  -2.10468521   0.92669049
1616.00  -2.11195040   0.92838621
1617.00  -2.11921967   0.93008394
1618.00  -2.12649302   0.93178370
1619.00  -2.13377045   0.93348548
1620.00  -2.14105195   0.93518928
1621.00  -2.14833753   0.93689510
1622.00  -2.15562718   0.93860295
1623.00  -2.16292091   0.94031282
1624.00  -2.17021871   0.94202472
1625.00  -2.17752058   0.94373864
1626.00  -2.18482652   0.94545459
1627.00  -2.19213653   0.94717257
1628.00  -2.19945062   0.94889259
1629.00  -2.20676877   0.95061463
1630.00  -2.21409099   0.95233871
1631.00  -2.22141727   0.95406481
1632.00  -2.22874763   0.95579296
1633.00  -2.23608205   0.95752314
1634.00  -2.24342054   0.95925535
1635.00  -2.25076309   0.96098961
1636.00  -2.25810970   0.96272590
1637.00  -2.26546038   0.96446423
1638.00  -2.27281512   0.96620460
1639.00  -2.28017392   0.96794701
1640.00  -2.28753679   0.96969147
1641.00  -2.29490371   0.97143797
1642.00  -2.30227469   0.97318652
1643.00  -2.30964974   0.97493711
1644.00  -2.31702883   0.97668975
1645.00  -2.32441199   0.97844443
1646.00  -2.33179920   0.98020117
1647.00  -2.33919047   0.98195995
1648.00  -2.34658580   0.98372079
1649.00  -2.35398517   0.98548368
1650.00  -2.36138861   0.98724862
1651.00  -2.36879609   0.98901562
1652.00  -2.37620763   0.99078467
1653.00  -2.38362321   0.99255578
1654.00  -2.39104285   0.99432895
1655.00  -2.39846654   0.99610417
1656.00  -2.40589427   0.99788145
1657.00  -2.41332606   0.99966080
1658.00  -2.42076189   1.00144220
1659.00  -2.42820177   1.00322567
1660.00  -2.43564569   1.00501121
1661.00  -2.44309366   1.00679880
1662.00  -2.45054567   1.00858847
1663.00  -2.45800173   1.01038020
1664.00  -2.46546183   1.01217399
1665.00  -2.47292597   1.01396986
1666.00  -2.48039416   1.01576780
1667.00  -2.48786638   1.01756780
1668.00  -2.49534264   1.01936988
1669.00  -2.50282295   1.02117403
1670.00  -2.51030729   1.02298026
1671.00  -2.51779567   1.02478856
1672.00  -2.52528808   1.02659894
1673.00  -2.53278453   1.02841139
1674.00  -2.54028502   1.03022593
1675.00  -2.54778954   1.03204254
1676.00  -2.55529810   1.03386123
1677.00  -2.56281068   1.03568201
1678.00  -2.57032730   1.03750486
1679.00  -2.57784796   1.03932980
1680.00  -2.58537264   1.04115683
1681.00  -2.59290135   1.04298593
1682.00  -2.60043409   1.04481713
1683.00  -2.60797086   1.04665041
1684.00  -2.61551166   1.04848579
1685.00  -2.62305648   1.05032325
1686.00  -2.63060533   1.05216280
1687.00  -2.63815821   1.05400444
1688.00  -2.64571511   1.05584818
1689.00  -2.65327603   1.05769401
1690.00  -2.66084098   1.05954193
1691.00  -2.66840995   1.06139196
1692.00  -2.67598294   1.06324407
1693.00  -2.68355995   1.06509829
1694.00  -2.69114098   1.06695460
1695.00  -2.69872603   1.06881302
1696.00  -2.70631510   1.07067353
1697.00  -2.71390819   1.07253615
1698.00  -2.72150529   1.07440087
1699.00  -2.72910641   1.07626769
1700.00  -2.73671155   1.07813662
1701.00  -2.74432070   1.08000765
1702.00  -2.75193386   1.08188080
1703.00  -2.75955104   1.08375605
1704.00  -2.76717222   1.08563340
1705.00  -2.77479742   1.08751287
1706.00  -2.78242664   1.08939445
1707.00  -2.79005986   1.09127815
1708.00  -2.79769709   1.09316395
1709.00  -2.80533832   1.09505187
1710.00  -2.81298357   1.09694191
1711.00  -2.82063282   1.09883406
1712.00  -2.82828608   1.10072833
1713.00  -2.83594335   1.10262471
1714.00  -2.84360461   1.10452322
1715.00  -2.85126989   1.10642385
1716.00  -2.85893916   1.10832660
1717.00  -2.86661244   1.11023147
1718.00  -2.87428972   1.11213846
1719.00  -2.88197100   1.11404758
1720.00  -2.88965628   1.11595882
1721.00  -2.89734556   1.11787219
1722.00  -2.90503883   1.11978769
1723.00  -2.91273611   1.12170532
1724.00  -2.92043738   1.12362507
1725.00  -2.92814265   1.12554696
1726.00  -2.93585191   1.12747098
1727.00  -2.94356517   1.12939713
1728.00  -2.95128242   1.13132541
1729.00  -2.95900366   1.13325583
1730.00  -2.96672890   1.13518838
1731.00  -2.97445812   1.13712308
1732.00  -2.98219134   1.13905990
1733.00  -2.98992855   1.14099887
1734.00  -2.99766975   1.14293998
1735.00  -3.00541493   1.14488323
1736.00  -3.01316410   1.14682862
1737.00  -3.02091726   1.14877615
1738.00  -3.02867440   1.15072582
1739.00  -3.03643553   1.15267764
1740.00  -3.04420065   1.15463161
1741.00  -3.05196974   1.15658772
1742.00  -3.05974282   1.15854598
1743.00  -3.06751989   1.16050639
1744.00  -3.07530093   1.16246895
1745.00  -3.08308595   1.16443366
1746.00  -3.09087495   1.16640053
1747.00  -3.09866794   1.16836954
1748.00  -3.10646490   1.17034071
1749.00  -3.11426583   1.17231403
1750.00  -3.12207075   1.17428951
1751.00  -3.12987963   1.17626715
1752.00  -3.13769250   1.17824695
1753.00  -3.14550934   1.18022890
1754.00  -3.15333015   1.18221301
1755.00  -3.16115493   1.18419929
1756.00  -3.16898369   1.18618772
1757.00  -3.17681641   1.18817832
1758.00  -3.18465311   1.19017108
1759.00  -3.19249377   1.19216601
1760.00  -3.20033841   1.19416311
1761.00  -3.20818701   1.19616237
1762.00  -3.21603958   1.19816380
1763.00  -3.22389611   1.20016739
1764.00  -3.23175661   1.20217316
1765.00  -3.23962108   1.20418110
1766.00  -3.24748951   1.20619121
1767.00  -3.25536190   1.20820349
1768.00  -3.26323825   1.21021795
1769.00  -3.27111857   1.21223458
1770.00  -3.27900284   1.21425339
1771.00  -3.28689108   1.21627438
1772.00  -3.29478328   1.21829754
1773.00  -3.30267943   1.22032288
1774.00  -3.31057954   1.22235041
1775.00  -3.31848361   1.22438011
1776.00  -3.32639163   1.22641199
1777.00  -3.33430361   1.22844606
1778.00  -3.34221954   1.23048232
1779.00  -3.35013943   1.23252075
1780.00  -3.35806326   1.23456138
1781.00  -3.36599106   1.23660419
1782.00  -3.37392280   1.23864918
1783.00  -3.38185849   1.24069637
1784.00  -3.38979813   1.24274575
1785.00  -3.39774172   1.24479732
1786.00  -3.40568926   1.24685108
1787.00  -3.41364074   1.24890703
1788.00  -3.42159618   1.25096518
1789.00  -3.42955555   1.25302552
1790.00  -3.43751887   1.25508805
1791.00  -3.44548614   1.25715279
1792.00  -3.45345735   1.25921972
1793.00  -3.46143250   1.26128885
1794.00  -3.46941159   1.26336018
1795.00  -3.47739462   1.26543372
1796.00  -3.48538160   1.26750945
1797.00  -3.49337251   1.26958739
1798.00  -3.50136736   1.27166753
1799.00  -3.50936615   1.27374987
1800.00  -3.51736887   1.27583443
1801.00  -3.52537553   1.27792118
1802.00  -3.53338613   1.28001015
1803.00  -3.54140066   1.28210132
1804.00  -3.54941912   1.28419471
1805.00  -3.55744152   1.28629031
1806.00  -3.56546785   1.28838811
1807.00  -3.57349810   1.29048813
1808.00  -3.58153229   1.29259037
1809.00  -3.58957041   1.29469482
1810.00  -3.59761246   1.29680148
1811.00  -3.60565844   1.29891036
1812.00  -3.61370834   1.30102146
1813.00  -3.62176217   1.30313478
1814.00  -3.62981992   1.30525031
1815.00  -3.63788160   1.30736807
1816.00  -3.64594720   1.30948805
1817.00  -3.65401673   1.31161025
1818.00  -3.66209017   1.31373468
1819.00  -3.67016754   1.31586133
1820.00  -3.67824883   1.31799021
1821.00  -3.68633404   1.32012131
1822.00  -3.69442317   1.32225464
1823.00  -3.70251622   1.32439020
1824.00  -3.71061318   1.32652799
1825.00  -3.71871406   1.32866800
1826.00  -3.72681886   1.33081025
1827.00  -3.73492757   1.33295474
1828.00  -3.74304019   1.33510145
1829.00  -3.75115673   1.33725040
1830.00  -3.75927718   1.33940159
1831.00  -3.76740154   1.34155501
1832.00  -3.77552982   1.34371067
1833.00  -3.78366200   1.34586857
1834.00  -3.79179809   1.34802871
1835.00  -3.79993809   1.35019108
1836.00  -3.80808200   1.35235570
1837.00  -3.81622982   1.35452256
1838.00  -3.82438154   1.35669167
1839.00  -3.83253716   1.35886302
1840.00  -3.84069669   1.36103661
1841.00  -3.84886013   1.36321245
1842.00  -3.85702746   1.36539054
1843.00  -3.86519870   1.36757087
1844.00  -3.87337384   1.36975346
1845.00  -3.88155288   1.37193829
1846.00  -3.88973582   1.37412538
1847.00  -3.89792266   1.37631471
1848.00  -3.90611340   1.37850630
1849.00  -3.91430803   1.38070015
1850.00  -3.92250656   1.38289625
1851.00  -3.93070898   1.38509460
1852.00  -3.93891530   1.38729521
1853.00  -3.94712552   1.38949808
1854.00  -3.95533962   1.39170321
1855.00  -3.96355762   1.39391060
1856.00  -3.97177951   1.39612025
1857.00  -3.98000529   1.39833216
1858.00  -3.98823496   1.40054633
1859.00  -3.99646851   1.40276277
1860.00  -4.00470596   1.40498147
1861.00  -4.01294729   1.40720244
1862.00  -4.02119251   1.40942568
1863.00  -4.02944162   1.41165118
1864.00  -4.03769461   1.41387895
1865.00  -4.04595148   1.41610899
1866.00  -4.05421224   1.41834130
1867.00  -4.06247687   1.42057588
1868.00  -4.07074539   1.42281273
1869.00  -4.07901779   1.42505186
1870.00  -4.08729407   1.42729326
1871.00  -4.09557423   1.42953694
1872.00  -4.10385827   1.43178289
1873.00  -4.11214619   1.43403112
1874.00  -4.12043798   1.43628163
1875.00  -4.12873364   1.43853441
1876.00  -4.13703318   1.44078948
1877.00  -4.14533660   1.44304683
1878.00  -4.15364389   1.44530646
1879.00  -4.16195505   1.44756837
1880.00  -4.17027008   1.44983257
1881.00  -4.17858898   1.45209905
1882.00  -4.18691176   1.45436782
1883.00  -4.19523840   1.45663888
1884.00  -4.20356891   1.45891222
1885.00  -4.21190329   1.46118785
1886.00  -4.22024153   1.46346577
1887.00  -4.22858364   1.46574598
1888.00  -4.23692961   1.46802849
1889.00  -4.24527945   1.47031328
1890.00  -4.25363315   1.47260037
1891.00  -4.26199072   1.47488976
1892.00  -4.27035214   1.47718144
1893.00  -4.27871743   1.47947541
1894.00  -4.28708657   1.48177168
1895.00  -4.29545958   1.48407026
1896.00  -4.30383644   1.48637113
1897.00  -4.31221716   1.48867430
1898.00  -4.32060174   1.49097977
1899.00  -4.32899017   1.49328754
1900.00  -4.33738246   1.49559762
1901.00  -4.34577860   1.49791000
1902.00  -4.35417860   1.50022469
1903.00  -4.36258244   1.50254168
1904.00  -4.37099014   1.50486098
1905.00  -4.37940169   1.50718259
1906.00  -4.38781709   1.50950650
1907.00  -4.39623634   1.51183273
1908.00  -4.40465944   1.51416126
1909.00  -4.41308638   1.51649211
1910.00  -4.42151717   1.51882527
1911.00  -4.42995181   1.52116075
1912.00  -4.43839029   1.52349853
1913.00  -4.44683262   1.52583864
1914.00  -4.45527878   1.52818106
1915.00  -4.46372879   1.53052580
1916.00  -4.47218265   1.53287285
1917.00  -4.48064034   1.53522223
1918.00  -4.48910187   1.53757392
1919.00  -4.49756724   1.53992794
1920.00  -4.50603645   1.54228428
1921.00  -4.51450950   1.54464294
1922.00  -4.52298638   1.54700393
1923.00  -4.53146710   1.54936724
1924.00  -4.53995166   1.55173287
1925.00  -4.54844005   1.55410084
1926.00  -4.55693227   1.55647113
1927.00  -4.56542832   1.55884375
1928.00  -4.57392820   1.56121870
1929.00  -4.58243192   1.56359598
1930.00  -4.59093947   1.56597559
1931.00  -4.59945084   1.56835753
1932.00  -4.60796604   1.57074181
1933.00  -4.61648507   1.57312842
1934.00  -4.62500793   1.57551737
1935.00  -4.63353461   1.57790865
1936.00  -4.64206511   1.58030227
1937.00  -4.65059944   1.58269823
1938.00  -4.65913760   1.58509653
1939.00  -4.66767957   1.58749717
1940.00  -4.67622537   1.58990014
1941.00  -4.68477498   1.59230546
1942.00  -4.69332842   1.59471313
1943.00  -4.70188567   1.59712313
1944.00  -4.71044675   1.59953549
1945.00  -4.71901164   1.60195018
1946.00  -4.72758034   1.60436723
1947.00  -4.73615287   1.60678662
1948.00  -4.74472920   1.60920836
1949.00  -4.75330935   1.61163245
1950.00  -4.76189331   1.61405889
1951.00  -4.77048109   1.61648768
1952.00  -4.77907268   1.61891882
1953.00  -4.78766807   1.62135232
1954.00  -4.79626728   1.62378817
1955.00  -4.80487029   1.62622637
1956.00  -4.81347711   1.62866693
1957.00  -4.82208774   1.63110985
1958.00  -4.83070218   1.63355513
1959.00  -4.83932042   1.63600276
1960.00  -4.84794246   1.63845276
1961.00  -4.85656831   1.64090511
1962.00  -4.86519796   1.64335983
1963.00  -4.87383141   1.64581690
1964.00  -4.88246867   1.64827635
1965.00  -4.89110972   1.65073815
1966.00  -4.89975457   1.65320232
1967.00  -4.90840322   1.65566886
1968.00  -4.91705567   1.65813777
1969.00  -4.92571192   1.66060904
1970.00  -4.93437196   1.66308268
1971.00  -4.94303579   1.66555869
1972.00  -4.95170342   1.66803707
1973.00  -4.96037485   1.67051783
1974.00  -4.96905006   1.67300095
1975.00  -4.97772907   1.67548645
1976.00  -4.98641187   1.67797433
1977.00  -4.99509846   1.68046458
1978.00  -5.00378883   1.68295720
1979.00  -5.01248300   1.68545221
1980.00  -5.02118095   1.68794959
1981.00  -5.02988269   1.69044935
1982.00  -5.03858821   1.69295149
1983.00  -5.04729752   1.69545601
1984.00  -5.05601062   1.69796292
1985.00  -5.06472749   1.70047220
1986.00  -5.07344815   1.70298387
1987.00  -5.08217259   1.70549793
1988.00  -5.09090081   1.70801437
1989.00  -5.09963281   1.71053320
1990.00  -5.10836859   1.71305441
1991.00  -5.11710814   1.71557801
1992.00  -5.12585148   1.71810401
1993.00  -5.13459858   1.72063239
1994.00  -5.14334947   1.72316316
1995.00  -5.15210413   1.72569633
1996.00  -5.16086256   1.72823189
1997.00  -5.16962476   1.73076984
1998.00  -5.17839074   1.73331018
1999.00  -5.18716049   1.73585293
2000.00  -5.19593401   1.73839807
